Acquisition Time (ms)	Shunt Voltage (V)	Sample Voltage (V)	Integrated Sample Voltage (V)	
milliseconds	Volts	Volts	Volts	
6458000	0.0127309449	4.2613305E-6	3.2613305E-6
6458251	0.0249539138	3.4721637E-6	5.7334943E-6
6458501	0.0376184866	4.4406866E-6	9.1741809E-6
6458750	0.0490518672	2.5126087E-6	1.06867895E-5
6459000	0.0622156098	4.4048154E-6	1.40916049E-5
6459250	0.0745780533	2.7412877E-6	1.58328926E-5
6459500	0.087118018	4.7411081E-6	1.95740007E-5
6459750	0.0988422506	2.8040623E-6	2.1378063E-5
6460000	0.11199169	5.292628E-6	2.5670691E-5
6460250	0.1269772181	6.9606397E-6	3.16313307E-5
6460500	0.1369206115	7.6197733E-6	3.8251104E-5
6460750	0.1486549289	2.51294116E-5	6.23805156E-5
6461000	0.1617631934	2.157042246E-4	2.770847402E-4
6461250	0.1736222505	1.822543139E-4	4.583390541E-4
6461500	0.1867183679	1.720758558E-4	6.294149099E-4
6461750	0.1979418888	1.130094116E-4	7.414243215E-4
6462000	0.2112020583	7.51607928E-5	8.155851142E-4
6462251	0.222835621	5.17279197E-5	8.663130339E-4
6462501	0.2356792114	6.33815816E-5	9.286946155E-4
6462750	0.2475334979	5.37636113E-5	9.814582E-4
6463000	0.260551874	6.18884421E-5	0.0010423467
6463250	0.2724407024	5.28309596E-5	0.0010941776
6463500	0.285453292	6.134589E-5	0.0011545235
6463750	0.2973825372	5.21359548E-5	0.0012056595
6464000	0.3103646928	6.25565436E-5	0.001267216
6464250	0.3222890791	5.26829908E-5	0.001318899
6464500	0.3353308659	6.23682197E-5	0.0013802672
6464750	0.347271684	5.12122709E-5	0.0014304795
6465000	0.3602448728	6.22023153E-5	0.0014916818
6465250	0.3721285332	5.26829908E-5	0.0015433648
6465500	0.3851265905	6.20677982E-5	0.0016044326
6465750	0.3967950043	5.52791702E-5	0.0016587118
6466000	0.4094463613	5.21852777E-5	0.0017098971
6466250	0.4216952739	5.72072482E-5	0.0017661043
6466500	0.4344537462	5.48890707E-5	0.0018199934
6466750	0.4466037152	5.66467604E-5	0.0018756401
6467000	0.4592775554	5.22121811E-5	0.0019268523
6467250	0.4715542075	5.69471819E-5	0.0019827995
6467500	0.4842385163	5.15978865E-5	0.0020333974
6467750	0.4964806265	5.53553966E-5	0.0020877528
6468001	0.5094253691	5.34452542E-5	0.002140198
6468250	0.5214013916	5.64405009E-5	0.0021956385
6468500	0.5339796452	4.25179845E-5	0.0022371565
6468750	0.5460284178	5.8682452E-5	0.002294839
6469000	0.5582624447	4.45671278E-5	0.0023384061
6469250	0.5709636268	5.9328134E-5	0.0023967342
6469500	0.5831576346	4.29125678E-5	0.0024386468
6469750	0.5958513076	5.950749E-5	0.0024971543
6470000	0.6081041957	4.38138322E-5	0.0025399681
6470250	0.6208049361	5.89828735E-5	0.002597951
6470500	0.6330825159	4.16750108E-5	0.002638626
6470750	0.6453666772	6.13414061E-5	0.0026989674
6471000	0.6572088166	4.46657736E-5	0.0027426332
6471250	0.6702833785	6.27986743E-5	0.0028044319
6471500	0.682198533	4.33519903E-5	0.0028467838
6471750	0.6952109018	6.20543465E-5	0.0029078382
6472000	0.7070771145	4.43249971E-5	0.0029511632
6472250	0.7201674014	6.22561221E-5	0.0030124193
6472500	0.7320110426	4.51141638E-5	0.0030565335
6472750	0.7450688195	6.08481768E-5	0.0031163817
6473001	0.7569998756	4.4419159E-5	0.0031598008
6473250	0.7699434256	6.13369222E-5	0.0032201377
6473500	0.7812342634	4.80914749E-5	0.0032672292
6473750	0.7944230522	6.29152557E-5	0.0033291445
6474000	0.8060474715	4.7723795E-5	0.0033758683
6474250	0.8193262813	6.34578079E-5	0.0034383261
6474500	0.830999819	4.87550925E-5	0.0034860812
6474750	0.8442280969	6.43994274E-5	0.0035494806
6475000	0.8559318036	4.76924076E-5	0.003596173
6475250	0.8691348155	6.29869982E-5	0.00365816
6475500	0.88081785	4.7400954E-5	0.0037045609
6475750	0.8940223638	6.44980732E-5	0.003768059
6476000	0.9057257613	4.79390223E-5	0.003814998
6476250	0.9190254199	6.22292187E-5	0.0038762273
6476500	0.9304120653	5.10643021E-5	0.0039262916
6476750	0.9434421909	6.32560323E-5	0.0039885476
6477000	0.9552956381	5.1709984E-5	0.0040392576
6477250	0.9683662246	6.33232909E-5	0.0041015809
6477500	0.980239549	5.14050787E-5	0.004151986
6477750	0.9933094729	6.32919035E-5	0.0042142779
6478000	1.0051541	5.13736914E-5	0.0042646515
6478250	1.0182544	6.32829357E-5	0.0043269345
6478500	1.0300948	5.13602397E-5	0.0043772947
6478750	1.0432346	6.31753221E-5	0.00443947
6479000	1.0550639	5.17817265E-5	0.0044902518
6479250	1.0681811	6.40093279E-5	0.0045532611
6479500	1.0800062	5.25484738E-5	0.0046048096
6479750	1.0931179	6.25924148E-5	0.004666402
6480000	1.1049347	5.26829908E-5	0.004718085
6480250	1.1180645	6.3179806E-5	0.0047802648
6480501	1.1299043	5.13378202E-5	0.0048306026
6480750	1.1429857	6.22695738E-5	0.0048918722
6481000	1.154795	5.10777538E-5	0.0049419499
6481250	1.1679123	6.32336128E-5	0.0050041835
6481500	1.1797644	5.1709984E-5	0.0050548935
6481750	1.1928666	5.1665145E-5	0.0051055587
6482000	1.2073761	4.36613795E-5	0.0051482201
6482250	1.2172544	5.51491371E-5	0.0052023692
6482500	1.2293744	5.5337461E-5	0.0052567067
6482750	1.2422263	5.63866941E-5	0.0053120933
6483000	1.2543258	5.42478727E-5	0.0053653412
6483250	1.2671849	5.71355058E-5	0.0054214767
6483501	1.2792826	5.48845868E-5	0.0054753613
6483750	1.2920828	5.60369497E-5	0.0055303983
6484000	1.3042353	5.50191039E-5	0.0055844174
6484250	1.3169572	5.59024326E-5	0.0056393198
6484500	1.3291373	5.55123331E-5	0.0056938321
6484750	1.3419888	4.15629133E-5	0.005734395
6485001	1.3540571	5.43330669E-5	0.0057877281
6485250	1.3663071	4.4742E-5	0.0058314701
6485500	1.3787496	5.88707759E-5	0.0058893409
6485750	1.3912541	4.56387804E-5	0.0059339797
6486000	1.4036623	5.60145302E-5	0.0059889942
6486250	1.4161556	4.65265931E-5	0.0060345208
6486500	1.4286872	5.81981906E-5	0.006091719
6486750	1.4411725	4.58226204E-5	0.0061365416
6487000	1.4536328	5.5839658E-5	0.0061913813
6487250	1.4661653	4.60288799E-5	0.0062364101
6487500	1.4785776	5.74852501E-5	0.0062928954
6487750	1.4910468	4.01325485E-5	0.0063320279
6488001	1.4920933	-4.22052696E-5	0.0062888227
6488250	1.4801056	-4.37118573E-5	0.0062441108
6488500	1.4676488	-5.55583002E-5	0.0061875525
6488750	1.4559645	-4.70120019E-5	0.0061395405
6489000	1.4429977	-5.73428892E-5	0.0060811976
6489250	1.4310666	-4.05865845E-5	0.006039611
6489500	1.4181291	-5.90153809E-5	0.0059795957
6489750	1.4060924	-4.06672946E-5	0.0059379284
6490000	1.3931724	-5.847283E-5	0.0058784555
6490250	1.3811103	-4.04251644E-5	0.0058370304
6490500	1.3682067	-5.91229944E-5	0.0057769074
6490751	1.3561224	-4.02323571E-5	0.005735675
6491000	1.3433012	-5.88136058E-5	0.0056758614
6491250	1.3312609	-4.17748159E-5	0.0056330866
6491500	1.3183364	-5.89929615E-5	0.0055730936
6491750	1.3063505	-4.11650066E-5	0.0055309286
6492000	1.2933952	-5.83741844E-5	0.0054715544
6492250	1.2819065	-4.23397863E-5	0.0054282147
6492500	1.2688354	-6.01004828E-5	0.0053671142
6492750	1.257099	-4.5429188E-5	0.005320685
6493000	1.2438711	-5.88808642E-5	0.0052608041
6493250	1.232144	-4.39001808E-5	0.0052159039
6493500	1.2189152	-5.92081883E-5	0.0051556957
6493750	1.2073075	-4.55054141E-5	0.0051091903
6494000	1.1940141	-6.0714776E-5	0.0050474756
6494250	1.1823753	-4.47072813E-5	0.0050017683
6494500	1.1690569	-6.12124881E-5	0.0049395558
6494750	1.157329	-4.3640115E-5	0.0048949157
6495000	1.1441176	-6.08492928E-5	0.0048330664
6495250	1.13264	-4.50659927E-5	0.0047870004
6495500	1.1196219	-6.09344867E-5	0.0047250659
6495750	1.107914	-4.7298971E-5	0.0046767669
6496000	1.0947115	-6.14366827E-5	0.0046143302
6496250	1.0829848	-4.6590516E-5	0.0045667397
6496500	1.0697213	-6.06116465E-5	0.0045051281
6496750	1.0580205	-4.68371301E-5	0.004457291
6497000	1.044834	-6.16653612E-5	0.0043946256
6497250	1.0331039	-4.71061636E-5	0.0043465194
6497500	1.0198701	-6.19388786E-5	0.0042835806
6497750	1.0081266	-4.8294395E-5	0.0042342862
6498000	0.9938598027	-5.95355124E-5	0.0041737506
6498250	0.9831760105	-4.62721597E-5	0.0041264785
6498500	0.9699710992	-6.04053875E-5	0.0040650731
6498750	0.9582442468	-4.69626791E-5	0.0040171104
6499000	0.9449820895	-6.07461633E-5	0.0039553643
6499250	0.933297774	-4.70747764E-5	0.0039072895
6499500	0.9204925243	-5.74594704E-5	0.00384883
6499750	0.9085806826	-5.14376033E-5	0.0037963924
6500000	0.8956727789	-5.71904369E-5	0.003738202
6500250	0.8837034704	-5.0747084E-5	0.0036864549
6500500	0.8707592579	-5.65313047E-5	0.0036289236
6500750	0.8587650368	-5.10699242E-5	0.0035768537
6501000	0.8458836801	-5.7100759E-5	0.0035187529
6501250	0.8338250573	-5.09354074E-5	0.0034668175
6501500	0.820887603	-5.88584447E-5	0.003406959
6501750	0.8089035413	-5.04825343E-5	0.0033554765
6502000	0.7960243047	-5.81724092E-5	0.0032963041
6502250	0.7839958509	-5.1370345E-5	0.0032439338
6502501	0.7716441959	-4.75769723E-5	0.0031953568
6502750	0.7593950625	-5.52399438E-5	0.0031391168
6503000	0.7467611973	-4.83302661E-5	0.0030897866
6503250	0.7344735023	-5.37243883E-5	0.0030350622
6503500	0.7219119013	-4.92718835E-5	0.0029847903
6503750	0.7095396184	-5.45449405E-5	0.0029292454
6504000	0.696937424	-4.81643621E-5	0.002880081
6504250	0.6846036584	-5.41369064E-5	0.0028249441
6504500	0.671924871	-3.71519232E-5	0.0027867922
6504750	0.659999778	-5.75715677E-5	0.0027282206
6505000	0.6477775448	-4.06179718E-5	0.0026866026
6505250	0.6351248627	-5.71590496E-5	0.0026284436
6505500	0.6228960922	-4.07031657E-5	0.0025867404
6505750	0.6101495461	-5.69707262E-5	0.0025287697
6506000	0.5979501495	-3.96987739E-5	0.0024880709
6506250	0.5852584641	-5.77733428E-5	0.0024292976
6506500	0.5731508112	-4.00574853E-5	0.0023882401
6506750	0.560302627	-5.71680174E-5	0.0023300721
6507000	0.5480517267	-4.05327778E-5	0.0022885393
6507250	0.5353573027	-5.64416269E-5	0.0022310977
6507500	0.5238574464	-4.16178797E-5	0.0021884798
6507750	0.5108269675	-5.88270575E-5	0.0021286527
6508000	0.4991439771	-4.30885963E-5	0.0020845641
6508250	0.485898605	-5.8970542E-5	0.0020245936
6508500	0.4741002392	-4.23891091E-5	0.0019812045
6508750	0.4610025316	-5.92575111E-5	0.001920947
6509000	0.4491885735	-4.31648225E-5	0.0018767821
6509250	0.4360373744	-5.9759707E-5	0.0018160224
6509500	0.4242109158	-4.21021401E-5	0.0017729203
6509750	0.4111741645	-5.87463474E-5	0.001713174
6510000	0.3998917633	-4.63573536E-5	0.0016658166
6510250	0.3862472596	-5.93427051E-5	0.0016054739
6510500	0.3749924213	-4.49583793E-5	0.0015595155
6510750	0.3617735078	-6.08313572E-5	0.0014976842
6511000	0.3501550516	-4.64694509E-5	0.0014502147
6511250	0.3368660382	-6.07865183E-5	0.0013884282
6511500	0.3251501403	-4.57520282E-5	0.0013416762
6511750	0.3119684189	-6.05802593E-5	0.0012800959
6512000	0.3002451443	-4.65322254E-5	0.0012325637
6512250	0.2870711529	-6.1589135E-5	0.0011699745
6512500	0.2753422245	-4.65860321E-5	0.0011223885
6512750	0.2621288323	-5.70110812E-5	0.0010643774
6513000	0.2507241651	-4.99758545E-5	0.0010134016
6513250	0.2376888273	-5.98269654E-5	9.525746E-4
6513500	0.2257507037	-4.88324621E-5	9.027421E-4
6513750	0.2127287056	-5.95355124E-5	8.422066E-4
6514000	0.2008190725	-4.93167224E-5	7.918899E-4
6514250	0.1878355917	-5.91409299E-5	7.317489781E-4
6514501	0.1759020619	-4.88638493E-5	6.818851288E-4
6514750	0.1628916367	-5.91768011E-5	6.217083277E-4
6515000	0.1510096548	-3.12690568E-5	5.894392709E-4
6515251	0.1379258611	-2.35208913E-5	5.649183796E-4
6515500	0.1261054981	-1.98306481E-5	5.440877314E-4
6515750	0.1130320847	-2.39827322E-5	5.191049992E-4
6516000	0.1011761638	-2.8601141E-5	4.895038582E-4
6516250	0.0870747909	-3.20178668E-5	4.564859914E-4
6516500	0.0764857354	-3.07668609E-5	4.247191305E-4
6516750	0.063852594	-3.72371172E-5	3.864820134E-4
6517000	0.0516103872	-3.9568741E-5	3.459132723E-4
6517250	0.0388517438	-4.12143294E-5	3.036989429E-4
6517500	0.0266974215	-4.02547765E-5	2.624441664E-4
6517750	0.0139470739	-4.35952761E-5	2.178488903E-4
6518000	0.0021463368	-3.35648096E-5	1.832840807E-4
