Acquisition Time (ms)	Shunt Voltage (V)	Sample Voltage (V)	Integrated Sample Voltage (V)	
milliseconds	Volts	Volts	Volts	
8934750	0.0107973158	5.292628E-6	4.742628E-6
8935000	0.0229332048	3.8936505E-6	8.0862786E-6
8935250	0.0355988637	5.1939822E-6	1.27302608E-5
8935500	0.0478040609	4.9339159E-6	1.71141766E-5
8935750	0.0604127169	4.9428837E-6	2.15070603E-5
8936000	0.0726316899	3.7994886E-6	2.47565489E-5
8936250	0.0852426836	4.5438164E-6	2.87503653E-5
8936500	0.0974794283	3.185194E-6	3.13855593E-5
8936750	0.1101536781	5.0818846E-6	3.59174439E-5
8937000	0.125174147	2.3646399E-6	3.77320838E-5
8937250	0.1349465977	2.5350282E-6	3.9717112E-5
8937500	0.1471294742	4.3599764E-6	4.35270883E-5
8937750	0.1592223298	3.7860369E-6	4.67631252E-5
8938000	0.1717102531	4.4182671E-6	5.06313923E-5
8938250	0.1839716662	2.6650613E-6	5.27464537E-5
8938500	0.1964892284	4.1537169E-6	5.63501705E-5
8938750	0.2087559862	2.2839296E-6	5.80841002E-5
8939000	0.2213909557	3.5394223E-6	6.10735224E-5
8939250	0.2336736151	3.4273247E-6	6.39508471E-5
8939500	0.2462632207	4.5213969E-6	6.7922244E-5
8939750	0.2584918145	2.2435745E-6	6.96158185E-5
8940000	0.2707784052	4.6873012E-6	7.37531198E-5
8940250	0.2825006196	3.3286789E-6	7.65317986E-5
8940500	0.2955832207	6.6960894E-6	8.26778881E-5
8940750	0.3074157308	4.2344271E-6	8.63623152E-5
8941000	0.3204110494	8.4627469E-6	9.42750621E-5
8941250	0.3321910399	7.6197733E-6	1.013448354E-4
8941500	0.3449479662	3.08239674E-5	1.316188028E-4
8941750	0.3569853868	1.145608418E-4	2.456296446E-4
8942000	0.3700701964	3.019476003E-4	5.470272449E-4
8942250	0.3812957933	2.767435858E-4	8.232208307E-4
8942500	0.3944569309	2.716857441E-4	0.0010943566
8942750	0.4060938065	2.349760365E-4	0.0013287826
8943000	0.4193298585	2.19905641E-4	0.0015481383
8943250	0.4309195592	1.468763252E-4	0.0016944646
8943500	0.4441734564	8.40344353E-5	0.001777949
8943750	0.4558201821	4.99881656E-5	0.0018273872
8944000	0.4691033207	6.3637164E-5	0.0018904743
8944250	0.4806580377	4.90689656E-5	0.0019389933
8944500	0.4934276412	6.25161884E-5	0.0020009595
8944750	0.5052689414	5.13109167E-5	0.0020517204
8945000	0.5182048939	6.26417377E-5	0.0021138122
8945250	0.5300855065	5.24049889E-5	0.0021656671
8945500	0.5430420869	6.24713494E-5	0.0022275885
8945750	0.5548994212	5.28713147E-5	0.0022799098
8946000	0.5679604667	6.41034898E-5	0.0023434633
8946250	0.5797720396	5.24498279E-5	0.0023953631
8946500	0.5928473083	6.41348772E-5	0.002458948
8946750	0.6046004426	5.19835021E-5	0.0025103815
8947000	0.6176769922	6.41034898E-5	0.002573935
8947250	0.6295062778	5.18624367E-5	0.0026252474
8947500	0.6424930714	6.31887738E-5	0.0026878862
8947750	0.6543410856	5.17189519E-5	0.0027390552
8948001	0.6674171493	6.30766762E-5	0.0028015818
8948250	0.6791747007	5.19341792E-5	0.002852966
8948500	0.6924024044	6.27538353E-5	0.0029151698
8948750	0.704037999	5.11181089E-5	0.002965738
8949000	0.7170502794	6.30049338E-5	0.0030281929
8949250	0.7289025341	5.22749557E-5	0.0030799178
8949500	0.7419634912	5.27367977E-5	0.0031321046
8949750	0.7535125101	5.44317127E-5	0.0031859864
8950000	0.7661672241	5.40685166E-5	0.0032395049
8950250	0.7783008056	5.5610979E-5	0.0032945658
8950500	0.7911102957	5.5978659E-5	0.0033499945
8950750	0.8031355692	5.55571722E-5	0.0034050017
8951000	0.8158795975	5.41402591E-5	0.0034585919
8951250	0.8279904749	5.46559078E-5	0.0035126978
8951500	0.8406878142	5.55078492E-5	0.0035676557
8951750	0.852837739	5.50101361E-5	0.0036221158
8952000	0.8650373123	5.98168793E-5	0.0036813827
8952250	0.8776647726	5.55392366E-5	0.0037363719
8952500	0.8903615377	4.53876819E-5	0.0037812096
8952750	0.9022669745	5.75659604E-5	0.0038382256
8953000	0.9146261828	4.60602672E-5	0.0038837359
8953250	0.9271069504	5.85075798E-5	0.0039416934
8953500	0.9394533931	4.53787141E-5	0.0039865222
8953750	0.9519903024	5.76825418E-5	0.0040436547
8954000	0.9643908549	5.04455236E-5	0.0040935502
8954250	0.9768289089	5.80816091E-5	0.0041510818
8954500	0.9892101586	4.64907218E-5	0.0041970225
8954750	1.0016559	5.83371916E-5	0.0042548097
8955000	1.0140655	4.5199358E-5	0.0042994591
8955250	1.0265486	5.79112208E-5	0.0043568203
8955500	1.0389616	4.51859063E-5	0.0044014562
8955750	1.0514208	5.83909984E-5	0.0044592972
8956000	1.0630253	4.45536761E-5	0.0045033009
8956250	1.0759483	6.09871778E-5	0.0045637381
8956500	1.0878946	4.43249971E-5	0.0046075131
8956750	1.1008391	6.10947914E-5	0.0046680579
8957000	1.1127371	4.24417581E-5	0.0047099496
8957250	1.1256475	6.03190763E-5	0.0047697187
8957500	1.137672	4.33385386E-5	0.0048125072
8957750	1.1504567	6.13593417E-5	0.0048733166
8958000	1.1624784	4.38093483E-5	0.0049165759
8958251	1.1754117	6.0884048E-5	0.00497691
8958500	1.1872738	4.34147649E-5	0.0050197747
8958750	1.2025497	4.71005325E-5	0.0050663253
8959000	1.2122079	4.37107024E-5	0.005109486
8959250	1.2251249	6.07854022E-5	0.0051697214
8959500	1.2370293	4.55132311E-5	0.0052146846
8959750	1.2496277	6.20184753E-5	0.0052761531
8960000	1.2612461	4.71229521E-5	0.005322726
8960250	1.274384	6.20364109E-5	0.0053842124
8960500	1.286042	4.76341169E-5	0.0054312966
8960750	1.2993046	6.2856965E-5	0.0054936035
8961000	1.3109457	4.61678809E-5	0.0055392214
8961250	1.3241946	6.24354782E-5	0.0056011069
8961500	1.3358811	4.65848838E-5	0.0056471418
8961750	1.3490792	6.34129689E-5	0.0057100047
8962000	1.3607171	4.64996896E-5	0.0057559544
8962250	1.374064	6.35519699E-5	0.0058189564
8962500	1.3855884	4.75130515E-5	0.0058659195
8962750	1.3988002	6.29825143E-5	0.005928352
8963000	1.4102996	4.90420622E-5	0.005976844
8963250	1.4233307	6.34309045E-5	0.0060397249
8963500	1.4349227	5.04186202E-5	0.0060895936
8963750	1.4480611	6.34847113E-5	0.0061525283
8964000	1.4598577	4.96832602E-5	0.0062016615
8964250	1.4729853	6.28524811E-5	0.006263964
8964500	1.4846852	5.14230143E-5	0.006314837
8964750	1.4885886	-4.34966305E-5	0.0062707904
8965000	1.4775324	-4.39046647E-5	0.0062263357
8965250	1.4645103	-6.14994571E-5	0.0061642863
8965500	1.4527904	-4.78325541E-5	0.0061159037
8965750	1.439607	-6.13873598E-5	0.0060539664
8966000	1.4279201	-4.71420347E-5	0.0060062743
8966250	1.4147251	-6.1091423E-5	0.0059446329
8966500	1.4029936	-4.54471235E-5	0.0058986358
8966750	1.389837	-6.16474256E-5	0.0058364383
8967000	1.3781028	-4.66667422E-5	0.0057892216
8967250	1.3650206	-6.05040331E-5	0.0057281676
8967500	1.3532815	-4.72855193E-5	0.0056803321
8967750	1.3400985	-6.03874519E-5	0.0056193946
8968000	1.32842	-4.79446514E-5	0.0055708999
8968251	1.3157668	-5.53475572E-5	0.0055150024
8968500	1.3037903	-5.10519886E-5	0.0054634004
8968750	1.2909366	-5.40068735E-5	0.0054088435
8969000	1.2788986	-5.0993698E-5	0.0053572998
8969250	1.2660409	-5.66209826E-5	0.0053001288
8969500	1.2540327	-5.20294771E-5	0.0052475494
8969750	1.2411367	-5.66478859E-5	0.0051903515
8970000	1.2291637	-5.12492799E-5	0.0051385522
8970250	1.2162458	-5.74235993E-5	0.0050805786
8970500	1.2043116	-5.07829551E-5	0.0050292457
8970750	1.1914343	-5.61322383E-5	0.0049725634
8971000	1.1794462	-5.11013114E-5	0.0049209121
8971250	1.167185	-6.02529352E-5	0.0048601092
8971500	1.1547959	-5.45001016E-5	0.0048050591
8971750	1.1423779	-4.68236784E-5	0.0047576854
8972000	1.1299715	-5.44238755E-5	0.0047027115
8972250	1.1173958	-4.70523569E-5	0.0046551092
8972500	1.1051555	-5.43566171E-5	0.0046002025
8972750	1.0925994	-4.6092804E-5	0.0045535597
8973000	1.0802803	-5.38992601E-5	0.0044991105
8973250	1.0677014	-4.53305423E-5	0.0044532299
8973500	1.055397	-5.40561963E-5	0.0043986237
8973750	1.0429322	-4.56847698E-5	0.004352389
8974000	1.030402	-5.48005224E-5	0.0042970384
8974250	1.0185506	-3.80935405E-5	0.0042583949
8974500	1.0059776	-5.68586289E-5	0.0042009863
8974750	0.9922076207	-4.73169065E-5	0.0041531194
8975000	0.9810864004	-5.71680174E-5	0.0040954013
8975250	0.9689865217	-4.00843886E-5	0.004054767
8975500	0.9562150188	-5.71590496E-5	0.0039970579
8975750	0.9441182762	-4.01381953E-5	0.0039563697
8976000	0.9313410311	-5.68182738E-5	0.0038990014
8976250	0.9200655207	-4.21021401E-5	0.0038563493
8976500	0.9068868913	-6.02663868E-5	0.0037955329
8976750	0.895112864	-4.22904635E-5	0.0037526925
8977000	0.8820500958	-5.92485433E-5	0.0036928939
8977250	0.8702579141	-4.32948553E-5	0.0036490491
8977500	0.8571432447	-5.85625078E-5	0.0035899365
8977750	0.8454720922	-4.28957889E-5	0.0035464908
8978000	0.8322716422	-5.9055736E-5	0.003486885
8978250	0.8206499616	-4.34607594E-5	0.0034428743
8978500	0.8074699187	-5.94996413E-5	0.0033828246
8978750	0.7958411265	-4.31199836E-5	0.0033391546
8979000	0.7826326815	-5.81275703E-5	0.0032804771
8979250	0.7708723473	-4.3474211E-5	0.0032364529
8979500	0.7578276893	-5.91812849E-5	0.0031767216
8979750	0.7465761639	-4.61197073E-5	0.0031300519
8980000	0.733432474	-6.04098714E-5	0.003069092
8980250	0.7218048302	-4.52274128E-5	0.0030233146
8980500	0.7085533624	-6.07954861E-5	0.0029619691
8980750	0.6969107887	-4.6550161E-5	0.0029148689
8981000	0.6836262808	-6.02708707E-5	0.0028540481
8981250	0.6720099891	-4.58327383E-5	0.0028076653
8981500	0.6588119243	-6.15622316E-5	0.0027455531
8981750	0.6472221795	-4.55906081E-5	0.0026994125
8982000	0.6339826821	-6.13559726E-5	0.0026375065
8982250	0.6223363539	-4.71510025E-5	0.0025898055
8982500	0.60906682	-5.72397597E-5	0.0025320157
8982750	0.5977500095	-4.908356E-5	0.0024823822
8983000	0.5847569436	-5.93382212E-5	0.002422494
8983250	0.5729324285	-4.94243358E-5	0.0023725196
8983500	0.5599599022	-5.81948287E-5	0.0023137748
8983750	0.5480665241	-5.01596941E-5	0.0022630651
8984000	0.535095323	-6.01273862E-5	0.0022023877
8984250	0.5232323347	-4.95140136E-5	0.0021523237
8984500	0.5102512834	-5.89750259E-5	0.0020927987
8984750	0.4983496894	-4.92987868E-5	0.0020429499
8985000	0.4854004414	-5.88987997E-5	0.0019835011
8985250	0.4735074609	-5.02583397E-5	0.0019326928
8985500	0.4610979857	-6.14546182E-5	0.0018706881
8985750	0.4488349825	-5.14869262E-5	0.0018186512
8986000	0.4362117184	-5.1078892E-5	0.0017670223
8986250	0.4240494256	-5.26661898E-5	0.0017138061
8986500	0.411495908	-4.80612326E-5	0.0016651949
8986750	0.399230917	-5.14376033E-5	0.0016132073
8987000	0.3865521297	-4.95095298E-5	0.0015631478
8987250	0.3743814444	-5.25002858E-5	0.0015100975
8987500	0.3617061466	-1.659203357E-4	0.0013436271
8987750	0.3495840497	-3.99812591E-5	0.0013030959
8988000	0.3368904649	-2.83365914E-5	0.0012742093
8988250	0.324721944	-2.92154342E-5	0.0012444439
8988500	0.3120793329	-3.20402862E-5	0.0012118536
8988750	0.2998827633	-3.22017064E-5	0.0011791019
8989000	0.2878030708	-3.39638759E-5	0.001144588
8989250	0.2753401484	-4.04296483E-5	0.0011036083
8989500	0.2630302795	-4.22770118E-5	0.0010607813
8989750	0.2505156767	-4.60614168E-5	0.0010141699
8990000	0.2382237854	-4.69312918E-5	9.666886E-4
8990250	0.2256489331	-5.18546053E-5	9.14284E-4
8990500	0.2133773164	-5.36840333E-5	8.600499817E-4
8990750	0.2007757405	-5.8638734E-5	8.008612477E-4
8991000	0.1886202501	-5.88763803E-5	7.414348674E-4
8991250	0.1759457473	-6.0342613E-5	6.805422544E-4
8991500	0.1636000997	-5.71949208E-5	6.227973336E-4
8991750	0.1510837742	-5.51592338E-5	5.670880999E-4
8992000	0.1388141011	-5.13568933E-5	5.151812066E-4
8992250	0.1262578448	-5.16976691E-5	4.629335375E-4
8992500	0.1139496544	-4.83661373E-5	4.140174002E-4
8992750	0.1016859444	-4.52005095E-5	3.682668908E-4
8993000	0.0882689108	-4.10618771E-5	3.266550137E-4
8993250	0.0769514536	-3.81787345E-5	2.879262792E-4
8993500	0.0651504662	-3.36903585E-5	2.536859206E-4
8993750	0.0521014221	-3.2838419E-5	2.202975016E-4
8994000	0.0402733747	-2.65833896E-5	1.93164112E-4
8994250	0.027281651	-2.48077683E-5	1.678063437E-4
8994500	0.015454721	-2.05704903E-5	1.466858533E-4
8994750	0.0028538201	-1.62435345E-5	1.298923189E-4
