Acquisition Time (ms)	Shunt Voltage (V)	Sample Voltage (V)	Integrated Sample Voltage (V)	
milliseconds	Volts	Volts	Volts	
7400000	0.004298962	3.0192896E-6	2.4692896E-6
7400250	0.0172219765	4.3868798E-6	6.3061694E-6
7400500	0.02890654	3.1582906E-6	8.91446E-6
7400751	0.0421434751	4.3510086E-6	1.27154685E-5
7401001	0.0539079535	2.2435745E-6	1.44090431E-5
7401250	0.0669685295	5.0460134E-6	1.89050565E-5
7401500	0.078694626	3.1807101E-6	2.15357666E-5
7401750	0.091922702	5.1850144E-6	2.6170781E-5
7402000	0.1036012804	2.543996E-6	2.81647769E-5
7402250	0.1168176769	4.3868798E-6	3.20016567E-5
7402500	0.1317495257	5.6334046E-6	3.70850613E-5
7402750	0.1416491012	4.6200427E-6	4.1155104E-5
7403000	0.1534300635	2.862353E-6	4.34674571E-5
7403250	0.166223917	5.8262124E-6	4.87436695E-5
7403500	0.1776739922	4.149233E-6	5.23429025E-5
7403750	0.1904618384	7.3641909E-6	5.91570933E-5
7404000	0.2024570755	4.745592E-6	6.33526853E-5
7404250	0.2153619314	7.9246787E-6	7.0727364E-5
7404500	0.227337203	7.5345792E-6	7.77119431E-5
7404750	0.2403118053	2.92904728E-5	1.06452416E-4
7405000	0.2522994007	2.024587774E-4	3.083611934E-4
7405250	0.265158451	2.387200948E-4	5.465312882E-4
7405500	0.2768757624	2.378233144E-4	7.838046026E-4
7405750	0.2899206854	2.185245991E-4	0.0010017792
7406000	0.301809558	1.778107668E-4	0.00117904
7406250	0.3143918312	9.94725107E-5	0.0012779625
7406500	0.3266304077	6.32291289E-5	0.0013406416
7406750	0.3392824714	5.12615938E-5	0.0013913532
7407001	0.3515574451	5.69113106E-5	0.0014477145
7407250	0.3641294705	4.96070339E-5	0.0014967715
7407500	0.37647662	5.73910882E-5	0.0015536126
7407750	0.3890770034	5.10284309E-5	0.0016040911
7408000	0.4013473832	5.71355058E-5	0.0016606766
7408250	0.4133541048	5.21494065E-5	0.001712276
7408500	0.4259790032	5.97810081E-5	0.001771507
7408750	0.4380392603	4.35313464E-5	0.0018144883
7409000	0.4508077595	5.88752598E-5	0.0018728136
7409250	0.4630279608	4.39573171E-5	0.0019162209
7409500	0.4757628015	5.93146822E-5	0.0019749856
7409750	0.4878668765	4.40021561E-5	0.0020184377
7410000	0.5006245537	5.98079115E-5	0.0020776957
7410251	0.5128261589	4.49392917E-5	0.002122085
7410500	0.525527827	6.06329495E-5	0.0021821679
7410750	0.5377945406	4.3365442E-5	0.0022249833
7411000	0.5503895793	5.9830331E-5	0.0022842637
7411250	0.5624385286	4.42622224E-5	0.0023279759
7411500	0.5749378922	6.17135699E-5	0.0023891395
7411750	0.5866025957	4.60602672E-5	0.0024346497
7412000	0.599818859	6.25655114E-5	0.0024966652
7412250	0.6115802534	4.5840556E-5	0.0025419558
7412500	0.6246827315	6.20947016E-5	0.0026035005
7412750	0.6365055239	4.50917443E-5	0.0026480422
7413000	0.6496503181	6.25117045E-5	0.002710004
7413250	0.6614669265	4.61858165E-5	0.0027556398
7413500	0.6745046496	6.23727036E-5	0.0028174625
7413750	0.6863114962	4.63696565E-5	0.0028632821
7414000	0.6994668031	6.12696636E-5	0.0029240018
7414250	0.7110298243	4.68718535E-5	0.0029703236
7414500	0.7240008046	6.2305445E-5	0.0030320791
7414750	0.7355591437	4.88313188E-5	0.0030803604
7415000	0.7488375118	6.4143845E-5	0.0031439543
7415250	0.7604477521	4.96384212E-5	0.0031930427
7415500	0.773638131	6.35519699E-5	0.0032560446
7415750	0.785316395	4.7033274E-5	0.0033025279
7416000	0.798574356	6.37223582E-5	0.0033657003
7416250	0.8102053126	4.94007744E-5	0.0034145511
7416500	0.8234369917	6.32425806E-5	0.0034772436
7416750	0.8350820831	4.85219296E-5	0.0035252156
7417000	0.8482811196	6.51034E-5	0.003589769
7417250	0.8597394108	5.28264757E-5	0.0036420454
7417500	0.8727441379	6.26820928E-5	0.0037041775
7417750	0.8846120292	5.33466084E-5	0.0037569741
7418000	0.8976364125	6.22785416E-5	0.0038187027
7418250	0.9095044805	5.19835021E-5	0.0038701362
7418500	0.9225280687	6.2215767E-5	0.0039318019
7418750	0.9344226836	5.15395958E-5	0.0039827915
7419001	0.9474704335	6.33412265E-5	0.0040455828
7419250	0.9593318758	5.15440797E-5	0.0040965769
7419500	0.9723609413	6.4417363E-5	0.0041604442
7419750	0.9843005225	5.2857863E-5	0.0042127521
7420000	0.9966637504	5.32928015E-5	0.0042654949
7420250	1.0089097	5.53733322E-5	0.0043203182
7420500	1.0214995	5.25350221E-5	0.0043723032
7420750	1.0337911	5.58306902E-5	0.0044275839
7421000	1.0464661	5.25215704E-5	0.0044795555
7421250	1.058712	5.63104677E-5	0.004535316
7421500	1.0714259	5.1987986E-5	0.0045867539
7421750	1.0836422	5.68978589E-5	0.0046431018
7422000	1.0963355	5.3364544E-5	0.0046959163
7422250	1.1085395	5.62252736E-5	0.0047515916
7422500	1.1212433	5.36111586E-5	0.0048046528
7422750	1.1334569	5.68395682E-5	0.0048609423
7423000	1.1461931	5.36739332E-5	0.0049140663
7423250	1.1583737	5.63328873E-5	0.0049698492
7423500	1.1711365	5.27771528E-5	0.0050220763
7423750	1.183291	5.56513341E-5	0.0050771777
7424000	1.1959662	5.35394162E-5	0.0051301671
7424250	1.2104135	4.55939414E-5	0.005175211
7424500	1.22094	4.21951435E-5	0.0052168562
7424750	1.2328457	5.88752598E-5	0.0052751814
7425000	1.2451862	4.52980038E-5	0.0053199294
7425250	1.2577231	5.95702647E-5	0.0053789497
7425500	1.2700685	4.69839511E-5	0.0054253836
7425751	1.2826425	5.90097769E-5	0.0054838434
7426000	1.2950235	4.48361619E-5	0.0055281296
7426250	1.3075992	5.75928638E-5	0.0055851724
7426500	1.31988	4.49841307E-5	0.0056296066
7426750	1.332527	5.87452267E-5	0.0056878018
7427000	1.3440915	4.39483493E-5	0.0057312001
7427250	1.3570289	6.18839582E-5	0.0057925341
7427500	1.3689293	4.51186478E-5	0.0058371028
7427750	1.3819915	6.08123056E-5	0.0058973651
7428000	1.3938753	4.45178049E-5	0.0059413329
7428250	1.4069072	6.1709086E-5	0.0060024919
7428500	1.4188593	4.41680605E-5	0.00604611
7428750	1.4319206	6.18615387E-5	0.0061074215
7429000	1.4438298	4.35178947E-5	0.0061503894
7429250	1.4567865	6.2126089E-5	0.0062119655
7429500	1.4686824	4.36434439E-5	0.006255059
7429750	1.4816546	6.37268421E-5	0.0063182358
7430000	1.4929139	1.95290177E-5	0.0063372148
7430250	1.4868957	-5.3944099E-5	0.0062827207
7430500	1.475403	-4.46714102E-5	0.0062374993
7430750	1.4621279	-6.02663868E-5	0.0061766829
7431000	1.450452	-4.52677679E-5	0.0061308652
7431250	1.4372433	-6.03740002E-5	0.0060699412
7431500	1.4255755	-4.45907002E-5	0.0060248005
7431750	1.4121551	-6.09882935E-5	0.0059632622
7432000	1.4006365	-4.49090565E-5	0.0059178031
7432250	1.3873311	-6.05847432E-5	0.0058566684
7432500	1.3759658	-4.79984581E-5	0.0058081199
7432750	1.3629227	-6.10779713E-5	0.0057464919
7433000	1.3510914	-4.78908447E-5	0.0056980511
7433250	1.3379958	-6.09030995E-5	0.005636598
7433500	1.3261726	-4.82092011E-5	0.0055878388
7433750	1.3129977	-6.04322908E-5	0.0055268565
7434000	1.3012345	-4.88100426E-5	0.0054774965
7434250	1.2881318	-5.01955652E-5	0.0054267509
7434500	1.2765802	-5.1702153E-5	0.0053744988
7434750	1.2637564	-5.70290168E-5	0.0053169197
7435000	1.2516257	-5.17156047E-5	0.0052646541
7435250	1.2388139	-5.82262159E-5	0.0052058779
7435500	1.2267384	-5.22671234E-5	0.0051530608
7435750	1.2139498	-5.27603515E-5	0.0050997504
7436000	1.2018347	-5.17604436E-5	0.00504744
7436250	1.188973	-5.37647433E-5	0.0049931253
7436500	1.1769167	-5.16304107E-5	0.0049409448
7436750	1.1641321	-5.17604436E-5	0.0048886344
7437000	1.1519591	-5.17156047E-5	0.0048363688
7437250	1.1392105	-5.43745526E-5	0.0047814442
7437500	1.1273155	-5.50426526E-5	0.0047258516
7437750	1.1149545	-4.39091486E-5	0.0046813924
7438000	1.1024665	-5.5688333E-5	0.0046251541
7438250	1.090069	-4.37701479E-5	0.004580834
7438500	1.0775806	-5.53385894E-5	0.0045249454
7438750	1.0650013	-4.49583793E-5	0.004479437
7439000	1.0525976	-5.49978136E-5	0.0044238892
7439250	1.0401867	-4.36580506E-5	0.0043796811
7439500	1.0277072	-5.45449405E-5	0.0043245862
7439750	1.0152308	-4.3640115E-5	0.0042803961
7440000	1.0027968	-5.45494244E-5	0.0042252966
7440250	0.989298722	-4.35773405E-5	0.0041811693
7440500	0.9781916808	-5.73966959E-5	0.0041232226
7440750	0.9662060289	-4.24877548E-5	0.0040801849
7441000	0.9532958283	-5.85221528E-5	0.0040211127
7441250	0.9411853043	-3.99095168E-5	0.0039806532
7441500	0.9283652572	-5.78630207E-5	0.0039222402
7441750	0.9163250096	-3.99633235E-5	0.0038817268
7442001	0.9033978914	-5.77464395E-5	0.0038234304
7442250	0.8914056139	-4.04251644E-5	0.0037824552
7442500	0.8785515549	-5.93068339E-5	0.0037225984
7442750	0.8664749544	-4.07704241E-5	0.003681278
7443000	0.853627212	-5.69527906E-5	0.0036237752
7443250	0.8415612568	-4.11381033E-5	0.0035820871
7443500	0.8287711137	-5.83338293E-5	0.0035232033
7443750	0.8174304506	-4.30885963E-5	0.0034795647
7444000	0.8042278362	-5.9387544E-5	0.0034196271
7444250	0.7925360558	-4.36311472E-5	0.003375446
7444500	0.7793707219	-6.00332244E-5	0.0033148627
7444750	0.7677426806	-4.3267952E-5	0.0032710448
7445000	0.7545140052	-6.03560647E-5	0.0032101387
7445250	0.7428039378	-4.3971923E-5	0.0031656168
7445500	0.7295855985	-6.03695163E-5	0.0031046973
7445750	0.7178446113	-4.35055983E-5	0.0030606417
7446000	0.7050420118	-5.89436387E-5	0.0030011481
7446250	0.6929984073	-4.48776692E-5	0.0029557204
7446500	0.6802268603	-6.01408379E-5	0.0028950295
7446750	0.6685220051	-4.68640334E-5	0.0028476155
7447000	0.6553016339	-6.09927773E-5	0.0027860727
7447250	0.6435964254	-4.74872944E-5	0.0027380354
7447500	0.630422169	-6.07192599E-5	0.0026767662
7447750	0.6186984969	-4.76531984E-5	0.002628563
7448000	0.6054713233	-6.05578398E-5	0.0025674551
7448250	0.5938309582	-4.65591288E-5	0.002520346
7448500	0.5805705678	-6.12842303E-5	0.0024585118
7448750	0.5689400529	-4.76576823E-5	0.0024103041
7449000	0.5557022781	-5.33477414E-5	0.0023564064
7449250	0.5442188536	-4.92360123E-5	0.0023066203
7449500	0.5313528242	-5.77688589E-5	0.0022483015
7449750	0.5193705735	-5.14107E-5	0.0021963408
7450000	0.5064581644	-5.73025342E-5	0.0021384883
7450251	0.4944688904	-5.07112128E-5	0.002087227
7450500	0.4815921717	-5.53834284E-5	0.0020312936
7450750	0.4695473745	-5.0912988E-5	0.0019798306
7451000	0.4566323592	-5.74908576E-5	0.0019217898
7451250	0.4446607096	-5.11282148E-5	0.0018701116
7451500	0.4317398195	-5.82576032E-5	0.0018113039
7451750	0.4197364108	-4.97157888E-5	0.0017610382
7452000	0.4067869861	-5.94009957E-5	0.0017010872
7452250	0.3948519104	-5.10519886E-5	0.0016494852
7452500	0.3819256314	-4.30258218E-5	0.0016059094
7452750	0.3702621647	-5.43924882E-5	0.0015509669
7453000	0.3576582477	-6.19433625E-5	0.0014884735
7453250	0.3450658152	-5.25899636E-5	0.0014353335
7453500	0.3327871753	-4.53350262E-5	0.0013894485
7453750	0.3204671911	-5.39396151E-5	0.0013349589
7454000	0.307867117	-4.67698717E-5	0.001287639
7454250	0.2955517266	-5.33522253E-5	0.0012337368
7454500	0.2830495801	-4.69268079E-5	0.00118626
7454750	0.2706754862	-5.36840333E-5	0.001132026
7455000	0.2580617631	-9.49941309E-5	0.0010364818
7455250	0.2457951378	-3.54121731E-5	0.0010005197
7455500	0.2339086504	-2.3328084E-5	9.766416E-4
7455750	0.2211575547	-2.29604048E-5	9.531312E-4
7456000	0.2089369559	-2.43683469E-5	9.282128E-4
7456250	0.1962670911	-2.83455592E-5	8.993173E-4
7456500	0.1840730834	-3.10627978E-5	8.677044622E-4
7456750	0.1713999499	-3.80442177E-5	8.291102445E-4
7457000	0.1592302806	-3.97391289E-5	7.888211156E-4
7457250	0.1468284029	-4.30437574E-5	7.452273582E-4
7457500	0.1351921899	-4.42499244E-5	7.004274338E-4
7457750	0.1220091876	-4.983237E-5	6.500450638E-4
7458000	0.1102339234	-4.72630998E-5	6.02231964E-4
7458250	0.0963256078	-5.42938426E-5	5.473881214E-4
7458500	0.0853300987	-5.38275178E-5	4.930106036E-4
7458750	0.0721732753	-5.23792207E-5	4.400813829E-4
7459000	0.0604763082	-4.46893458E-5	3.948420371E-4
7459250	0.0473000502	-4.44337639E-5	3.498582732E-4
7459500	0.0356017959	-3.78020876E-5	3.115061857E-4
7459750	0.022472971	-3.48202993E-5	2.761358863E-4
7460000	0.0112266992	-2.89508846E-5	2.466350017E-4
