Acquisition Time (ms)	Shunt Voltage (V)	Sample Voltage (V)	Integrated Sample Voltage (V)	
milliseconds	Volts	Volts	Volts	
4944000	0.0053356971	2.6919647E-6	1.5919647E-6
4944250	0.0178103227	3.0686125E-6	3.5605773E-6
4944500	0.0300765858	2.4274145E-6	4.8879918E-6
4944750	0.0427296713	3.5394223E-6	7.3274141E-6
4945000	0.0550409136	3.6604876E-6	9.8879017E-6
4945250	0.067700078	6.1938924E-6	1.49817941E-5
4945500	0.0800501313	1.78520382E-5	3.17338323E-5
4945750	0.0926999359	1.536604693E-4	1.842943016E-4
4946000	0.1050189109	1.069920148E-4	2.901863164E-4
4946250	0.1176725104	7.05603091E-5	3.596466254E-4
4946500	0.1326962042	6.07764344E-5	4.193230598E-4
4946750	0.1423713014	6.00365905E-5	4.782596503E-4
4947000	0.154118826	4.41411571E-5	5.213008074E-4
4947250	0.1672469235	6.19377651E-5	5.821385725E-4
4947500	0.1790719686	4.49213561E-5	6.259599285E-4
4947750	0.1922113297	6.12831153E-5	6.861430438E-4
4948001	0.2041161482	4.4876517E-5	7.299195609E-4
4948250	0.2171271918	6.18346353E-5	7.906541962E-4
4948500	0.2290177429	4.51186478E-5	8.346728439E-4
4948750	0.2421631555	6.17001182E-5	8.952729622E-4
4949000	0.2540570637	4.4508837E-5	9.386817992E-4
4949250	0.2671104234	6.21171211E-5	9.996989E-4
4949500	0.2790466918	4.50513892E-5	0.0010436503
4949750	0.2920956785	6.18660226E-5	0.0011044163
4950000	0.3033798465	4.70512096E-5	0.0011503675
4950250	0.3166912547	6.36102606E-5	0.0012128778
4950500	0.3283534846	4.86474788E-5	0.0012604253
4950750	0.3417079598	6.39644889E-5	0.0013232898
4951000	0.3530567503	5.08445909E-5	0.0013730344
4951250	0.3661408091	6.33412265E-5	0.0014352756
4951500	0.3780020746	5.22435684E-5	0.0014864192
4951750	0.391074958	6.3134967E-5	0.0015484541
4952000	0.4029735925	5.07459451E-5	0.0015981001
4952250	0.4160387459	6.24399621E-5	0.00165944
4952500	0.4279243499	5.17010162E-5	0.001710041
4952750	0.4410692324	6.24040909E-5	0.0017713451
4953000	0.4529001082	5.1987986E-5	0.0018222331
4953250	0.466009477	6.21036694E-5	0.0018832368
4953500	0.4779000281	5.1804146E-5	0.0019339409
4953750	0.4909641656	4.95173558E-5	0.0019823583
4954000	0.5025945922	5.34228347E-5	0.0020346811
4954250	0.5154785992	5.25170864E-5	0.0020860982
4954500	0.5275740167	5.54585263E-5	0.0021404567
4954750	0.5403165873	5.51715566E-5	0.0021945283
4955000	0.5525326807	5.44003254E-5	0.0022478286
4955250	0.5653380629	5.54540424E-5	0.0023021827
4955500	0.577527256	5.48083605E-5	0.002355891
4955750	0.5903267192	5.51222337E-5	0.0024099133
4956001	0.6025162656	5.48621673E-5	0.0024636754
4956250	0.615355218	5.68306004E-5	0.002519406
4956500	0.627483543	5.53060736E-5	0.0025736121
4956750	0.6403183433	5.59203683E-5	0.0026284325
4957000	0.652456121	5.574998E-5	0.0026830824
4957250	0.665291363	5.593382E-5	0.0027379163
4957500	0.6774409344	5.56827214E-5	0.002792499
4957750	0.6896487236	4.38541873E-5	0.0028352532
4958000	0.7021159306	5.83820306E-5	0.0028925352
4958250	0.7145738174	4.61095901E-5	0.0029375448
4958500	0.7270885527	5.83775467E-5	0.0029948223
4958750	0.739532614	4.62620428E-5	0.0030399844
4959000	0.752075663	5.79919311E-5	0.0030968763
4959250	0.7644877001	4.41277054E-5	0.003139904
4959500	0.7770359172	5.75749282E-5	0.003196379
4959750	0.7895191584	4.62620428E-5	0.003241541
4960000	0.8020300949	5.76018316E-5	0.0032980428
4960250	0.8144404535	4.60199121E-5	0.0033429627
4960500	0.8269856228	5.61894024E-5	0.0033980521
4960750	0.839341209	4.54683921E-5	0.0034424205
4961000	0.8519085523	5.79874472E-5	0.003499308
4961250	0.8643342383	4.55177151E-5	0.0035437257
4961500	0.8768896111	5.71220541E-5	0.0035997478
4961750	0.8893123376	4.61051062E-5	0.0036447529
4962000	0.9018443881	5.76377028E-5	0.0037012906
4962250	0.9143684435	4.65400448E-5	0.0037467306
4962500	0.9268655544	5.69382141E-5	0.0038025688
4962750	0.939325429	4.55715219E-5	0.0038470403
4963000	0.9518618965	5.81981906E-5	0.0039041385
4963250	0.9635623345	4.31681503E-5	0.0039462067
4963500	0.9764749204	6.08212734E-5	0.004005928
4963750	0.9885541712	4.2952923E-5	0.0040477809
4964000	1.0014079	6.13055348E-5	0.0041079864
4964250	1.0134521	4.43563844E-5	0.0041512428
4964500	1.0264673	6.07988539E-5	0.0042109417
4964750	1.0385275	4.39707688E-5	0.0042538124
4965000	1.051431	6.09378549E-5	0.0043136503
4965250	1.0635619	4.38497034E-5	0.0043564
4965500	1.0761643	6.14041807E-5	0.0044167042
4965750	1.0877307	4.68987569E-5	0.0044625029
4966000	1.1010145	6.3865843E-5	0.0045252688
4966251	1.1128541	4.74233735E-5	0.0045715921
4966500	1.1260086	6.32963874E-5	0.0046337885
4966750	1.137748	4.68404662E-5	0.004679529
4967000	1.150963	6.34219367E-5	0.0047418509
4967250	1.1627717	4.6665594E-5	0.0047874165
4967500	1.1759841	6.22875094E-5	0.004848604
4967750	1.1876868	4.56522321E-5	0.0048931563
4968000	1.2028682	4.94904524E-5	0.0049415467
4968250	1.212706	4.68987569E-5	0.0049873455
4968500	1.2259629	6.28166099E-5	0.0050490621
4968750	1.2377305	4.76386008E-5	0.0050956007
4969000	1.2509659	6.24578977E-5	0.0051569586
4969250	1.2623335	4.9876068E-5	0.0052057346
4969500	1.2755703	6.3179806E-5	0.0052678144
4969750	1.2873014	5.01316505E-5	0.0053168461
4970000	1.3005685	6.35788733E-5	0.005379325
4970250	1.3122786	4.98132934E-5	0.0054280383
4970500	1.3255257	6.29690626E-5	0.0054899073
4970750	1.3373218	5.16696289E-5	0.005540477
4971000	1.3499973	6.03459798E-5	0.0055997229
4971250	1.3620817	5.34811254E-5	0.0056521041
4971500	1.3750133	6.04446256E-5	0.0057114487
4971750	1.3870558	5.43868737E-5	0.0057647356
4972000	1.4000008	5.82161262E-5	0.0058218517
4972250	1.412078	5.37636113E-5	0.0058745153
4972500	1.4250338	5.87272911E-5	0.0059321426
4972750	1.437115	5.26426357E-5	0.0059836852
4973000	1.4500538	6.06060461E-5	0.0060431913
4973250	1.4621408	5.47814571E-5	0.0060968727
4973501	1.4744479	6.38344557E-5	0.0061596072
4973750	1.486857	5.53329771E-5	0.0062138402
4974250	1.4906753	-4.98637572E-5	0.0061628764
4974500	1.47819	-4.42140532E-5	0.0061175624
4974750	1.4657836	-5.53789445E-5	0.0060610834
4975000	1.4532056	-4.74469394E-5	0.0060125365
4975250	1.4407983	-5.47646513E-5	0.0059566718
4975500	1.4281958	-4.67609039E-5	0.0059088109
4975750	1.4157373	-5.53206539E-5	0.0058523903
4976000	1.403125	-4.82630078E-5	0.0058030273
4976250	1.3907756	-5.49440069E-5	0.0057469832
4976500	1.3780707	-4.8626203E-5	0.005697257
4976750	1.3657552	-5.48498452E-5	0.0056413072
4977000	1.3532458	-4.76218112E-5	0.0055925854
4977251	1.340724	-5.5607623E-5	0.0055358778
4977500	1.3283105	-4.74469394E-5	0.0054873308
4977751	1.3159624	-5.63788524E-5	0.005429852
4978000	1.3037947	-4.02727121E-5	0.0053884793
4978250	1.2910711	-5.72128563E-5	0.0053301664
4978500	1.2789387	-4.03848094E-5	0.0052886816
4978750	1.2660596	-5.70290168E-5	0.0052305526
4979000	1.2539574	-4.052381E-5	0.0051889288
4979250	1.2410921	-5.86521857E-5	0.0051291766
4979500	1.228896	-4.0277196E-5	0.0050877994
4979751	1.2160957	-5.82755387E-5	0.0050284238
4980000	1.2039481	-4.15506213E-5	0.0049857732
4980250	1.1911136	-5.86656374E-5	0.0049260076
4980500	1.1789691	-4.04296483E-5	0.0048844779
4980750	1.166106	-5.7392212E-5	0.0048259857
4981000	1.1538778	-4.12367489E-5	0.004783649
4981250	1.1411453	-5.92350917E-5	0.0047233139
4981500	1.1288649	-4.1232265E-5	0.0046809816
4981750	1.1161849	-5.75760516E-5	0.0046223056
4982000	1.1040404	-4.32186292E-5	0.0045779869
4982250	1.0914264	-5.92037044E-5	0.0045176832
4982500	1.0798063	-4.3308307E-5	0.0044732749
4982750	1.0665467	-6.05354204E-5	0.0044116395
4983000	1.0547533	-4.4057117E-5	0.0043664824
4983250	1.0415312	-5.997045E-5	0.0043054119
4983500	1.0298732	-4.43440861E-5	0.0042599679
4983750	1.0169798	-6.15846511E-5	0.0041972832
4984000	1.0052519	-4.65456771E-5	0.0041496375
4984250	0.9909959587	-6.01318701E-5	0.0040884057
4984500	0.9802415808	-4.71599703E-5	0.0040401457
4984750	0.9669678065	-6.06878727E-5	0.0039783578
4985000	0.9552494792	-4.61869657E-5	0.0039310708
4985250	0.9419234061	-6.16922645E-5	0.0038682786
4985500	0.9301861734	-4.57385765E-5	0.00382144
4985750	0.9169650071	-5.55672679E-5	0.0037647727
4986001	0.905497705	-5.01955652E-5	0.0037134772
4986250	0.8925554361	-5.89795098E-5	0.0036533977
4986500	0.8805480078	-5.0455631E-5	0.003601842
4986751	0.8674799391	-5.98807721E-5	0.0035408613
4987000	0.8555845291	-5.05228894E-5	0.0034892384
4987250	0.8424977759	-5.92888984E-5	0.0034288495
4987500	0.83060135	-5.04870182E-5	0.0033772625
4987750	0.8175557645	-5.91543816E-5	0.0033170081
4988000	0.8056048754	-5.0330082E-5	0.003265578
4988250	0.7926152107	-5.97776426E-5	0.0032047003
4988500	0.7809224585	-5.36571299E-5	0.0031499432
4988750	0.7682936288	-4.86351708E-5	0.003100208
4989000	0.7559721428	-5.35809038E-5	0.0030455271
4989250	0.7433415021	-4.96305948E-5	0.0029947966
4989500	0.731015334	-5.40248091E-5	0.0029396717
4989750	0.7182634874	-5.12627316E-5	0.002887309
4990000	0.7060278703	-5.38320017E-5	0.002832377
4990250	0.6933056184	-5.10385369E-5	0.0027802385
4990500	0.6810241958	-5.29576428E-5	0.0027261808
4990750	0.6683327313	-5.01596941E-5	0.0026749211
4991000	0.65609707	-5.4150358E-5	0.0026196708
4991250	0.6433412922	-4.88907526E-5	0.00256968
4991500	0.6311331055	-5.37064527E-5	0.0025148736
4991750	0.6184029028	-4.92135929E-5	0.00246456
4992000	0.6060839787	-5.34149997E-5	0.002410045
4992250	0.5933520975	-5.0747084E-5	0.0023581979
4992500	0.5813648113	-5.49798781E-5	0.002302118
4992750	0.5684030628	-3.85060586E-5	0.002262512
4993001	0.5564326058	-5.62219162E-5	0.00220519
4993250	0.5440269294	-4.00664531E-5	0.0021640236
4993500	0.5314279154	-5.60739477E-5	0.0021068496
4993750	0.5191444167	-4.17434287E-5	0.0020640062
4994000	0.5064935014	-5.68675966E-5	0.0020060386
4994250	0.4941186565	-4.23308185E-5	0.0019626078
4994500	0.4815627978	-5.76208905E-5	0.0019038869
4994750	0.4692656501	-4.11829422E-5	0.001861604
4995000	0.4565454743	-5.6522337E-5	0.0018039816
4995250	0.4442643167	-4.19003649E-5	0.0017609813
4995500	0.4315683467	-5.65716598E-5	0.0017033096
4995750	0.4193159887	-4.11739744E-5	0.0016610356
4996000	0.4066221831	-5.65044014E-5	0.0016034312
4996250	0.3942758729	-4.25908843E-5	0.0015597403
4996500	0.381644393	-5.58721726E-5	0.0015027682
4996750	0.3693427399	-4.23308185E-5	0.0014593374
4997000	0.3566649243	-5.60425605E-5	0.0014021948
4997250	0.3451919241	-4.15192341E-5	0.0013595756
4997500	0.3320666978	-5.96565775E-5	0.001298819
4997750	0.3201749982	-4.21649145E-5	0.0012555541
4998000	0.3071202692	-5.84055716E-5	0.0011960485
4998250	0.2952165109	-4.31513708E-5	0.0011517971
4998500	0.2821031224	-5.84414428E-5	0.0010922557
4998750	0.2702531647	-4.20169461E-5	0.0010491387
4999000	0.2571351824	-5.91633494E-5	9.888754E-4
4999250	0.2458219497	-4.50794444E-5	9.426959E-4
4999500	0.2325276358	-6.09300029E-5	8.806659E-4
4999750	0.2204353545	-4.38194707E-5	8.357465E-4
5000000	0.2072464774	-5.94727379E-5	7.751737E-4
5000250	0.1958147774	-4.40302136E-5	7.300435142E-4
5000500	0.1826474116	-6.06430338E-5	6.683004804E-4
5000750	0.1709268757	-4.61959335E-5	6.210045469E-4
5001000	0.1576929439	-6.09300029E-5	5.589745441E-4
5001250	0.146024265	-4.60345134E-5	5.118400307E-4
5001500	0.1326738536	-6.06161304E-5	4.501239002E-4
5001750	0.120985916	-4.55323175E-5	4.034915828E-4
5002000	0.1077243772	-6.06026787E-5	3.41788904E-4
5002250	0.0943108301	-4.20752367E-5	2.986136673E-4
5002500	0.0827879559	-4.60883201E-5	2.514253472E-4
5002750	0.0713711403	-1.92298066E-5	2.310955406E-4
5003000	0.0582972533	-2.07319104E-5	2.092636302E-4
5003250	0.0464149027	-1.91939355E-5	1.889696947E-4
5003500	0.033282663	-2.26555001E-5	1.652141946E-4
5003750	0.0214965644	-2.27137907E-5	1.414004038E-4
5004000	0.0083705599	-2.95875973E-5	1.107128065E-4
