Acquisition Time (ms)	Shunt Voltage (V)	Sample Voltage (V)	Integrated Sample Voltage (V)	
milliseconds	Volts	Volts	Volts	
4243000	0.0055940718	3.7681013E-6	3.4681013E-6
4243250	0.0179264248	3.5439062E-6	6.7120075E-6
4243500	0.0294976708	2.4139628E-6	8.8259703E-6
4243750	0.0425234274	1.29511331E-5	2.14771033E-5
4244000	0.0544336827	9.75982396E-5	1.187753429E-4
4244250	0.0675013165	8.77784937E-5	2.062538366E-4
4244500	0.0795031528	4.22713698E-5	2.482252064E-4
4244750	0.0925613017	5.75166374E-5	3.054418439E-4
4245000	0.1044879566	4.14328801E-5	3.46574724E-4
4245250	0.1175683381	5.80457379E-5	4.043204619E-4
4245500	0.1326068458	6.12472441E-5	4.65267706E-4
4245750	0.1425261659	6.02832051E-5	5.252509111E-4
4246000	0.1545141146	4.32309249E-5	5.68181836E-4
4246250	0.1675473322	6.11306627E-5	6.290124987E-4
4246500	0.1795120027	4.45447083E-5	6.73257207E-4
4246750	0.1925430118	6.06957241E-5	7.336529311E-4
4247000	0.2045985867	4.34596039E-5	7.76812535E-4
4247250	0.2176151518	6.00365905E-5	8.365491255E-4
4247500	0.2296675022	4.39393815E-5	8.80188507E-4
4247750	0.2426074301	5.97585886E-5	9.396470955E-4
4248000	0.2539711506	4.69839511E-5	9.863310466E-4
4248250	0.2672208515	6.28614489E-5	0.0010488925
4248500	0.2789643123	4.71857267E-5	0.0010957782
4248750	0.2921804873	6.33726138E-5	0.0011588508
4249000	0.3039504067	4.72395335E-5	0.0012057904
4249250	0.3172377416	6.25430919E-5	0.0012680335
4249500	0.3289495758	4.79838613E-5	0.0013157173
4249750	0.3422642968	6.2856965E-5	0.0013782743
4250000	0.3539892941	4.71543394E-5	0.0014251286
4250250	0.3672617874	6.32156772E-5	0.0014880443
4250500	0.3790084286	4.58495238E-5	0.0015335938
4250751	0.3922957193	6.25296402E-5	0.0015958235
4251000	0.4036395627	4.97505188E-5	0.001645274
4251250	0.416739258	6.34891952E-5	0.0017084632
4251500	0.4286138191	5.11853675E-5	0.0017593485
4251750	0.4418174495	6.32022255E-5	0.0018222508
4252000	0.453599516	4.96832602E-5	0.001871634
4252250	0.466852839	6.30766762E-5	0.0019344107
4252500	0.4786284123	4.98850358E-5	0.0019839957
4252750	0.4917829683	6.23099289E-5	0.0020460057
4253000	0.5036285973	5.04903626E-5	0.002096196
4253250	0.5168318301	6.37268421E-5	0.0021596229
4253500	0.5286381908	5.02302963E-5	0.0022095532
4253750	0.5414697666	5.7718413E-5	0.0022669716
4254000	0.5533973332	5.4144743E-5	0.0023208163
4254250	0.5662721526	5.74359272E-5	0.0023779523
4254500	0.5783940287	5.41088717E-5	0.0024317611
4254750	0.5913558655	5.81847389E-5	0.0024896459
4255000	0.6034619724	5.23422143E-5	0.0025416881
4255250	0.6162969052	5.70413438E-5	0.0025984294
4255500	0.6284235517	5.34631898E-5	0.0026515926
4255750	0.6413835775	5.77542843E-5	0.0027090469
4256000	0.6534696307	5.34048991E-5	0.0027621518
4256250	0.6658500853	6.02159466E-5	0.0028220677
4256500	0.678458552	5.52567507E-5	0.0028770245
4256750	0.6906979236	4.70601774E-5	0.0029237847
4257000	0.7032265729	5.71579253E-5	0.0029806426
4257250	0.7157631729	4.82215081E-5	0.0030285641
4257500	0.7282414669	5.64763721E-5	0.0030847405
4257751	0.7408683972	4.93873227E-5	0.0031338278
4258000	0.7532333477	5.70278921E-5	0.0031905557
4258250	0.7657711404	4.68853052E-5	0.003237141
4258500	0.7782250518	5.72969262E-5	0.0032941379
4258750	0.7908110354	4.8320154E-5	0.0033421581
4259000	0.8032296981	5.68664716E-5	0.0033987246
4259250	0.8155956204	4.83874125E-5	0.003446812
4259500	0.828204838	5.71668931E-5	0.0035036789
4259750	0.8407624636	4.0244646E-5	0.0035436235
4260000	0.8528376506	5.95433613E-5	0.0036028669
4260250	0.8649714971	4.19261094E-5	0.003644493
4260500	0.8778627482	5.89200988E-5	0.0037031131
4260750	0.8899980082	4.18543669E-5	0.0037446674
4261000	0.9028613873	5.97810081E-5	0.0038041485
4261250	0.9149880338	4.17736567E-5	0.0038456221
4261500	0.9278862198	5.93505535E-5	0.0039046727
4261750	0.9402348712	4.21816918E-5	0.0039465544
4262000	0.9529182965	6.024285E-5	0.0040064972
4262250	0.9649945878	4.29215357E-5	0.0040491187
4262500	0.9779738281	6.07898861E-5	0.0041096086
4262750	0.9901327638	4.29887942E-5	0.0041522974
4263000	1.0029768	5.95343935E-5	0.0042115318
4263250	1.0151923	4.17377855E-5	0.0042529696
4263500	1.0279405	5.91084227E-5	0.004311778
4263750	1.0393569	4.51679707E-5	0.004356646
4264000	1.052701	6.12920831E-5	0.0044176381
4264250	1.0644726	4.49303239E-5	0.0044622684
4264500	1.0776419	6.29600948E-5	0.0045249285
4264750	1.0894184	4.64638184E-5	0.0045710923
4265000	1.1026977	6.21843797E-5	0.0046329767
4265250	1.1145072	4.65041735E-5	0.0046791809
4265500	1.1277195	6.17315056E-5	0.0047406124
4265750	1.1394818	4.58988467E-5	0.0047862112
4266000	1.1527371	6.0516368E-5	0.0048464276
4266250	1.1640095	4.95173558E-5	0.0048956449
4266500	1.1773223	6.35071308E-5	0.0049588521
4266750	1.1889982	5.00957792E-5	0.0050086479
4267000	1.2041655	5.34138669E-5	0.0050617617
4267250	1.2140888	4.88582222E-5	0.0051103199
4267500	1.2273697	6.37178742E-5	0.0051737378
4267750	1.2390816	5.00330046E-5	0.0052234708
4268000	1.252367	5.80367701E-5	0.0052812076
4268250	1.2638923	5.1665145E-5	0.0053325727
4268500	1.2769299	5.99289769E-5	0.0053922017
4268750	1.2888664	5.31538006E-5	0.0054450555
4269000	1.3018778	5.95926842E-5	0.0055043482
4269250	1.313959	5.29430572E-5	0.0055569913
4269500	1.3269455	6.20408948E-5	0.0056187321
4269750	1.3390044	5.40281615E-5	0.0056724603
4270000	1.3520292	6.18346353E-5	0.0057339949
4270250	1.3640307	5.48128444E-5	0.0057885078
4270500	1.3766318	4.91003529E-5	0.0058373081
4270750	1.3887754	5.52702024E-5	0.0058922783
4271000	1.4015021	5.08356231E-5	0.005942814
4271250	1.413803	5.65436307E-5	0.0059990576
4271500	1.4265529	4.94321617E-5	0.0060481898
4271750	1.4389009	5.50280717E-5	0.0061029178
4272000	1.4516183	5.18175977E-5	0.0061544354
4272250	1.4638933	5.69247624E-5	0.0062110602
4272500	1.4765974	5.15709831E-5	0.0062623312
4272750	1.4889619	5.61042082E-5	0.0063181354
4273000	1.5000092	1.6203121E-6	0.0063194557
4273250	1.4926675	-4.87876231E-5	0.0062703681
4273500	1.480037	-4.79132642E-5	0.0062221548
4273750	1.4677348	-5.46121989E-5	0.0061672426
4274000	1.4549782	-3.85015747E-5	0.006128441
4274250	1.4429945	-5.77598912E-5	0.0060703811
4274500	1.4307766	-4.21424951E-5	0.0060279386
4274750	1.4179224	-5.79706341E-5	0.005969668
4275000	1.4054719	-4.16447831E-5	0.0059277232
4275250	1.3929487	-5.79840858E-5	0.0058694391
4275500	1.3805962	-4.0860102E-5	0.005828279
4275751	1.36791	-5.7100759E-5	0.0057708783
4276000	1.3555428	-4.11874261E-5	0.0057293909
4276251	1.3428548	-5.78764724E-5	0.0056712144
4276500	1.3313719	-4.14788791E-5	0.0056294355
4276750	1.3182152	-6.06385499E-5	0.005568497
4277000	1.3063514	-4.32948553E-5	0.0055249021
4277250	1.2931925	-6.12887142E-5	0.0054633134
4277500	1.281314	-4.29271762E-5	0.0054200862
4277750	1.2681485	-6.01184184E-5	0.0053596678
4278000	1.2562548	-4.30123701E-5	0.0053163554
4278250	1.2431039	-6.0257419E-5	0.005255798
4278500	1.2311916	-4.35863083E-5	0.0052119117
4278750	1.2181062	-5.95803513E-5	0.0051520313
4279000	1.2062299	-4.36580506E-5	0.0051080733
4279250	1.1930394	-6.08268733E-5	0.0050469464
4279500	1.1811805	-4.41198915E-5	0.0050025265
4279750	1.1680319	-6.16788128E-5	0.0049405477
4280000	1.1561217	-4.35907922E-5	0.0048966569
4280250	1.1433571	-6.2212396E-5	0.0048341445
4280500	1.1317521	-4.9043205E-5	0.0047848013
4280750	1.1184654	-6.16429417E-5	0.0047228584
4281000	1.1067401	-4.75366172E-5	0.0046750218
4281250	1.0934048	-6.2006137E-5	0.0046127156
4281500	1.0816813	-4.66443227E-5	0.0045657713
4281750	1.0683269	-6.28491087E-5	0.0045026222
4282000	1.0566279	-4.71151314E-5	0.0044552071
4282250	1.0432855	-6.26338818E-5	0.0043922732
4282500	1.0316418	-4.96619821E-5	0.0043423112
4282750	1.0187542	-6.64048351E-5	0.0042756064
4283000	1.0068169	-5.0415276E-5	0.0042248911
4283250	0.9925752139	-5.99928694E-5	0.0041645982
4283500	0.9818316139	-5.0455631E-5	0.0041138426
4283750	0.9686882331	-6.02439674E-5	0.0040532986
4284000	0.9567850932	-4.96395626E-5	0.0040033591
4284250	0.9435448449	-6.05130009E-5	0.0039425461
4284500	0.9317363198	-5.0495986E-5	0.0038917501
4284750	0.9186274368	-6.09300029E-5	0.0038305201
4285000	0.9067564094	-5.06080833E-5	0.003779612
4285250	0.8936208028	-6.20285564E-5	0.0037172834
4285500	0.8817164261	-5.00879518E-5	0.0036668955
4285750	0.8686010058	-6.1961298E-5	0.0036046342
4286000	0.8567063909	-4.95543687E-5	0.0035547798
4286250	0.8435596973	-6.02663868E-5	0.0034942134
4286500	0.8316700738	-4.96799177E-5	0.0034442335
4286750	0.8186162724	-6.07551311E-5	0.0033831784
4287001	0.8066413983	-4.83302661E-5	0.0033345481
4287250	0.7935553519	-6.10869391E-5	0.0032731612
4287500	0.7816726632	-4.89400755E-5	0.0032239211
4287750	0.769114861	-5.224022E-5	0.0031713809
4288000	0.7569655104	-5.16797335E-5	0.0031194011
4288250	0.7441909156	-5.09264396E-5	0.0030681747
4288500	0.7319594948	-5.31325145E-5	0.0030147422
4288750	0.7191145351	-5.3320838E-5	0.0029611213
4289000	0.7068892541	-5.21684778E-5	0.0029086529
4289251	0.6940994644	-5.44373271E-5	0.0028539155
4289500	0.6819379226	-5.35405487E-5	0.002800075
4289750	0.6691010021	-5.37961306E-5	0.0027459789
4290000	0.6569416688	-5.38589051E-5	0.00269182
4290250	0.6446794165	-4.13802334E-5	0.0026501397
4290500	0.6321890637	-5.6477498E-5	0.0025933622
4290750	0.6197919565	-4.19317522E-5	0.0025511305
4291000	0.6072020859	-5.59753021E-5	0.0024948552
4291250	0.5947564787	-4.41243754E-5	0.0024504308
4291500	0.5821122774	-5.57645592E-5	0.0023943662
4291750	0.5697816921	-4.29630473E-5	0.0023511032
4292000	0.5571378443	-5.51368143E-5	0.0022956664
4292250	0.544654073	-3.83894774E-5	0.0022569769
4292500	0.5321803287	-5.74415348E-5	0.0021992354
4292750	0.5196780055	-3.88602861E-5	0.0021600751
4293000	0.5074513994	-5.83921199E-5	0.002101383
4293250	0.4955433565	-4.29137245E-5	0.0020581692
4293500	0.4824703406	-5.82889904E-5	0.0019995802
4293750	0.4704521787	-4.19003649E-5	0.0019573799
4294000	0.4574706414	-5.92933822E-5	0.0018977865
4294250	0.4452102885	-4.13936851E-5	0.0018560928
4294500	0.4324492984	-5.89212192E-5	0.0017968716
4294750	0.4204220814	-4.13174589E-5	0.0017552541
4295000	0.4074620114	-5.94189312E-5	0.0016955352
4295250	0.3954233982	-4.22097535E-5	0.0016530254
4295500	0.3824161091	-5.89077675E-5	0.0015938177
4295750	0.3703710911	-4.15506213E-5	0.0015519671
4296000	0.357814879	-6.04636781E-5	0.0014912034
4296250	0.3460894842	-4.53708974E-5	0.0014455325
4296500	0.3328900502	-6.11586814E-5	0.0013840738
4296750	0.321165848	-4.55726725E-5	0.0013382011
4297001	0.3076964392	-6.0840325E-5	0.0012770608
4297250	0.296146846	-4.56488987E-5	0.0012311119
4297500	0.2828771355	-5.97731587E-5	0.0011710387
4297750	0.2710918003	-4.43934089E-5	0.0011263453
4298000	0.2577798621	-6.0257419E-5	0.0010657879
4298250	0.2464291721	-4.64021925E-5	0.0010190857
4298500	0.2332460814	-6.10690035E-5	9.577167E-4
4298750	0.2214161774	-4.87248486E-5	9.086918748E-4
4299000	0.2082670986	-6.06968405E-5	8.476950344E-4
4299250	0.1964363996	-4.89624949E-5	7.984325394E-4
4299500	0.1832394391	-6.17012323E-5	7.364313071E-4
4299750	0.1714394832	-4.88324621E-5	6.872988451E-4
4300000	0.1582079808	-6.17057162E-5	6.252931289E-4
4300250	0.1464028128	-4.78998125E-5	5.770933164E-4
4300500	0.1331373868	-6.09838096E-5	5.158095069E-4
4300750	0.1214267011	-4.85679124E-5	4.669415944E-4
4301000	0.1081895006	-6.10196807E-5	4.056219137E-4
4301250	0.0949180566	-4.34473077E-5	3.618746061E-4
4301500	0.0832028126	-5.52354599E-5	3.063391461E-4
4301750	0.0716376142	-5.18949603E-5	2.541441858E-4
4302000	0.0587620775	-5.7266663E-5	1.965775228E-4
4302250	0.046651103	-2.2328176E-5	1.739493467E-4
4302500	0.0337515547	-1.72389585E-5	1.564103882E-4
4302750	0.0216798158	-1.39477817E-5	1.421626065E-4
4303000	0.0087342691	-1.88845469E-5	1.229780596E-4
