Acquisition Time (ms)	Shunt Voltage (V)	Sample Voltage (V)	Integrated Sample Voltage (V)	
milliseconds	Volts	Volts	Volts	
6762500	0.0120982497	5.158111E-6	4.658111E-6
6762750	0.0237426568	1.8355394E-6	5.9936504E-6
6763000	0.036986511	5.5213071E-6	1.10149574E-5
6763250	0.0486138928	2.9161599E-6	1.34311173E-5
6763500	0.0618618458	4.9922066E-6	1.79233239E-5
6763750	0.0732057104	3.3600662E-6	2.07833901E-5
6764000	0.0862913305	5.8934709E-6	2.6176861E-5
6764250	0.0980933147	3.274872E-6	2.89517331E-5
6764500	0.1112146885	5.4271451E-6	3.38788782E-5
6764750	0.1257596813	4.2702983E-6	3.76491765E-5
6765000	0.1354888883	6.3687646E-6	4.35179411E-5
6765250	0.1476435836	4.8307861E-6	4.78487272E-5
6765500	0.1604024093	1.16463175E-5	5.89950447E-5
6765750	0.1725642603	5.68709555E-5	1.153660002E-4
6766000	0.1853363816	2.085882718E-4	3.23454272E-4
6766250	0.1974643091	2.059517372E-4	5.289060092E-4
6766500	0.2102579859	1.824560895E-4	7.108620987E-4
6766750	0.22236957	1.377695198E-4	8.481316185E-4
6767000	0.2353889178	7.31968436E-5	9.208284621E-4
6767250	0.2473315469	5.63597907E-5	9.766882528E-4
6767500	0.2600493375	5.63014999E-5	0.0010324898
6767750	0.2722366753	5.53509127E-5	0.0010873407
6768000	0.284987241	5.60100463E-5	0.0011428507
6768250	0.2971385351	5.51087819E-5	0.0011974595
6768500	0.3099251887	5.53464288E-5	0.0012523059
6768750	0.322043001	5.52343312E-5	0.0013070403
6769000	0.3348952931	6.10365007E-5	0.0013675768
6769250	0.3469858959	5.52522668E-5	0.001422329
6769500	0.3597702967	5.89649379E-5	0.001480794
6769750	0.3719064401	5.52746863E-5	0.0015355686
6770000	0.3840695279	4.60288799E-5	0.0015810975
6770250	0.396494463	5.75345731E-5	0.0016381321
6770500	0.4089242128	4.67418204E-5	0.0016843739
6770750	0.4213513564	5.8911131E-5	0.001742785
6771000	0.4338451104	4.6253075E-5	0.0017885381
6771250	0.4462893925	5.74942179E-5	0.0018455323
6771500	0.458806248	4.82304759E-5	0.0018932628
6771750	0.4712496467	5.69651175E-5	0.0019497279
6772000	0.4836179542	4.6759756E-5	0.0019959877
6772250	0.4961422305	5.82295779E-5	0.0020537173
6772500	0.5085885445	4.86609305E-5	0.0021018782
6772750	0.5210826959	5.71444736E-5	0.0021585227
6773000	0.5335075869	4.6392076E-5	0.0022044147
6773250	0.5459431231	5.95612969E-5	0.002263476
6773500	0.5584473456	4.76206652E-5	0.0023105967
6773750	0.5709043048	5.60548853E-5	0.0023661516
6774000	0.5827310285	4.21458206E-5	0.0024077974
6774250	0.5954758077	6.04222061E-5	0.0024677196
6774500	0.6073432131	4.41590927E-5	0.0025113787
6774750	0.6203771374	6.14310841E-5	0.0025723098
6775000	0.6324068722	4.31457308E-5	0.0026149555
6775250	0.6453100496	6.12113729E-5	0.0026756669
6775500	0.657257935	4.37286381E-5	0.0027188955
6775750	0.6702088174	5.99020734E-5	0.0027782976
6776000	0.6821878436	4.33116351E-5	0.0028211093
6776250	0.6951480019	5.97047817E-5	0.002880314
6776500	0.7071540167	4.30964078E-5	0.0029229104
6776750	0.7200557364	6.11306627E-5	0.0029835411
6777000	0.7321081311	4.37734771E-5	0.0030268146
6777250	0.7449410762	6.06284656E-5	0.003086943
6777500	0.7569973579	4.36120566E-5	0.0031300551
6777750	0.7694093508	6.32784518E-5	0.0031928336
6778001	0.7811992798	4.65445287E-5	0.0032388781
6778251	0.7944513218	6.15790529E-5	0.0032999571
6778500	0.8060599278	4.68404662E-5	0.0033462976
6778750	0.8192627188	6.34936791E-5	0.0034092913
6779000	0.8309317511	4.63696565E-5	0.0034551609
6779250	0.8441826447	6.2717964E-5	0.0035173789
6779500	0.8558725699	4.58271043E-5	0.003562706
6779750	0.86908954	6.2722448E-5	0.0036249285
6780000	0.8807613108	4.72305657E-5	0.003671659
6780250	0.8935613483	6.31394509E-5	0.0037342985
6780500	0.9052527754	5.05576212E-5	0.0037843561
6780750	0.9184246466	6.35160986E-5	0.0038473722
6781000	0.9301771625	5.05038143E-5	0.003897376
6781250	0.9433465159	6.30632245E-5	0.0039599392
6781500	0.95512125	4.93335159E-5	0.0040087727
6781750	0.9683277514	6.36550996E-5	0.0040719278
6782000	0.9800318998	5.04410397E-5	0.0041218689
6782250	0.9931676389	6.28345455E-5	0.0041842034
6782500	1.0047622	4.96115178E-5	0.0042333149
6782750	1.0176103	6.02518178E-5	0.0042930668
6783000	1.0296214	5.46559078E-5	0.0043472227
6783250	1.0425588	5.94716188E-5	0.0044061943
6783500	1.0543273	5.62790804E-5	0.0044619734
6783750	1.0669628	4.68853052E-5	0.0045083587
6784000	1.0792404	5.70951506E-5	0.0045649538
6784250	1.0917985	5.01226827E-5	0.0046145765
6784500	1.104161	5.67364385E-5	0.0046708129
6784750	1.1167536	4.86609305E-5	0.0047189739
6785000	1.1290864	5.63508229E-5	0.0047748247
6785250	1.1416504	4.7813473E-5	0.0048221382
6785500	1.154029	5.6297016E-5	0.0048779352
6785751	1.1666367	5.18220816E-5	0.0049292573
6786000	1.1789415	5.71534414E-5	0.0049859107
6786250	1.1908257	4.19171416E-5	0.0050273279
6786500	1.2059345	4.65041735E-5	0.005073332
6786750	1.215791	4.28318576E-5	0.0051156639
6787001	1.2285106	5.92070686E-5	0.005174371
6787250	1.2406404	4.2585243E-5	0.0052164562
6787500	1.2533631	5.95657808E-5	0.005275522
6787750	1.2655535	4.46299024E-5	0.0053196519
6788000	1.2783234	6.134589E-5	0.0053804978
6788250	1.2905312	4.23117249E-5	0.0054223095
6788500	1.3032976	5.9830331E-5	0.0054816398
6788750	1.3145613	4.53921658E-5	0.005526532
6789000	1.327844	6.18256675E-5	0.0055878577
6789250	1.3395591	4.51590029E-5	0.0056325167
6789500	1.3527237	6.31080635E-5	0.0056951247
6789750	1.364494	4.55446185E-5	0.0057401693
6790000	1.377697	6.26193182E-5	0.0058022887
6790250	1.3895064	4.62889462E-5	0.0058480776
6790500	1.4026363	6.22471543E-5	0.0059098248
6790750	1.4144169	4.50782926E-5	0.0059544031
6791000	1.4271668	6.30677084E-5	0.0060169708
6791250	1.4391032	4.79479901E-5	0.0060644188
6791501	1.4521543	6.32111933E-5	0.0061271299
6791750	1.4638038	4.87954476E-5	0.0061754254
6792000	1.4770665	6.3179806E-5	0.0062381052
6792250	1.4887614	4.96832602E-5	0.0062872885
6792500	1.4924149	-4.41512787E-5	0.0062426372
6792750	1.4814483	-4.50659927E-5	0.0061970712
6793000	1.4682275	-6.07461633E-5	0.006135825
6793250	1.4565281	-4.68102267E-5	0.0060885148
6793500	1.4432708	-6.1297682E-5	0.0060267171
6793750	1.4316061	-4.55009302E-5	0.0059807162
6794000	1.4188428	-5.87553152E-5	0.0059214609
6794250	1.4068631	-4.96440465E-5	0.0058713168
6794500	1.3939399	-5.98583527E-5	0.0058109585
6794750	1.3819483	-5.02448881E-5	0.0057602136
6795000	1.3689792	-5.91543816E-5	0.0057005592
6795250	1.3570516	-4.98996284E-5	0.0056501596
6795500	1.3440331	-5.89212192E-5	0.0055907384
6795750	1.3321069	-5.02852431E-5	0.0055399531
6796000	1.3191294	-5.73697926E-5	0.0054820833
6796250	1.3071306	-4.91149473E-5	0.0054324684
6796500	1.2941552	-5.91050588E-5	0.0053728633
6796750	1.2821965	-5.08905685E-5	0.0053214727
6797000	1.2692252	-4.66263872E-5	0.0052743464
6797250	1.2575387	-5.3863389E-5	0.005219983
6797500	1.2449394	-4.75545528E-5	0.0051719284
6797750	1.2326532	-5.35988393E-5	0.0051178296
6798000	1.219877	-5.08636652E-5	0.0050664659
6798250	1.2077383	-5.35853876E-5	0.0050123805
6798500	1.1950147	-4.85096218E-5	0.0049633709
6798750	1.1828181	-5.3527097E-5	0.0049093438
6799000	1.1701653	-4.83482017E-5	0.0048604956
6799250	1.1578631	-5.3652646E-5	0.004806343
6799501	1.1451876	-5.06349867E-5	0.004755208
6799750	1.132901	-5.35853876E-5	0.0047011226
6800000	1.1201912	-4.89983661E-5	0.0046516242
6800250	1.1079817	-5.34239675E-5	0.0045977003
6800500	1.0952469	-4.89714627E-5	0.0045482288
6800750	1.0830423	-5.32849669E-5	0.0044944438
6801000	1.070292	-3.84118969E-5	0.0044555319
6801250	1.0582976	-5.66389181E-5	0.004398393
6801501	1.0460511	-4.18510421E-5	0.004356042
6801750	1.0334874	-5.70738557E-5	0.0042984681
6802000	1.0211932	-4.06672946E-5	0.0042573008
6802250	1.0084986	-5.6437143E-5	0.0042003637
6802500	0.9946730398	-5.10071497E-5	0.0041488565
6802750	0.9836077846	-5.70514362E-5	0.0040913051
6803000	0.9712776852	-4.24832709E-5	0.0040483218
6803250	0.958694882	-5.55986552E-5	0.0039922232
6803500	0.9463209205	-4.14430079E-5	0.0039502802
6803750	0.9337198304	-5.60873994E-5	0.0038936928
6804000	0.9214501132	-4.14609435E-5	0.0038517318
6804250	0.9087773773	-5.71814691E-5	0.0037940503
6804500	0.8971695222	-4.02144215E-5	0.0037533359
6804750	0.8842312729	-6.0342613E-5	0.0036924933
6805000	0.8723512787	-4.25012064E-5	0.0036494921
6805250	0.8592699144	-5.89974454E-5	0.0035899947
6805500	0.8474849326	-4.30661768E-5	0.0035464285
6805751	0.8343673037	-5.90736715E-5	0.0034868548
6806000	0.8226221644	-4.16133958E-5	0.0034447414
6806250	0.8095342186	-5.81589576E-5	0.0033860825
6806500	0.7976605409	-4.21245595E-5	0.0033434579
6806750	0.7846314754	-5.87284118E-5	0.0032842295
6807000	0.7727338127	-4.20438495E-5	0.0032416856
6807250	0.7597072208	-5.83203777E-5	0.0031828653
6807500	0.7482786128	-4.34921466E-5	0.0031388731
6807750	0.7352194666	-6.16205222E-5	0.0030767526
6808000	0.7235446038	-4.51242833E-5	0.0030311283
6808250	0.7102246705	-5.95086091E-5	0.0029711197
6808500	0.6986374876	-4.42454405E-5	0.0029263743
6808750	0.6853379173	-6.06430338E-5	0.0028652312
6809000	0.6737089484	-4.51511867E-5	0.00281958
6809250	0.6604487347	-6.08717123E-5	0.0027582083
6809500	0.6490656231	-4.75500689E-5	0.0027101583
6809750	0.6360858969	-6.04726459E-5	0.0026491856
6810000	0.6241953016	-4.87338164E-5	0.0025999518
6810250	0.6111165434	-6.0593711E-5	0.0025388581
6810500	0.5992927792	-4.87876231E-5	0.0024895705
6810750	0.5862012556	-6.15218766E-5	0.0024275486
6811000	0.5743574376	-4.87696876E-5	0.0023782789
6811250	0.5612572564	-6.18850719E-5	0.0023158938
6811500	0.5494149845	-4.83975245E-5	0.0022669963
6811750	0.5363127272	-6.12618109E-5	0.0022052345
6812000	0.5245442654	-4.99041123E-5	0.0021548304
6812250	0.5114167422	-4.91373667E-5	0.002105193
6812500	0.4996417431	-5.00431129E-5	0.0020546499
6812750	0.4870997983	-5.15048617E-5	0.002002645
6813000	0.4749652893	-5.1948767E-5	0.0019501963
6813250	0.4621834062	-5.21326066E-5	0.0018975637
6813500	0.4500361759	-5.28679649E-5	0.0018441957
6813750	0.4372967855	-5.21460583E-5	0.0017915496
6814000	0.4251103753	-5.16752496E-5	0.0017393744
6814250	0.4123300382	-5.32311602E-5	0.0016856432
6814500	0.4002044076	-5.20787999E-5	0.0016330644
6814750	0.3874013223	-5.31997729E-5	0.0015793647
6815000	0.3755488026	-5.3406032E-5	0.0015254586
6815250	0.363107745	-4.27971433E-5	0.0014821615
6815500	0.350749641	-5.55941713E-5	0.0014260673
6815750	0.3382917541	-4.3806019E-5	0.0013817613
6816000	0.325831482	-5.51009432E-5	0.0013261603
6816250	0.3133832245	-4.33262426E-5	0.0012823341
6816500	0.3008780302	-5.57555914E-5	0.0012260785
6816750	0.2884257089	-4.38867291E-5	0.0011816918
6817000	0.2760071345	-5.53520411E-5	0.0011258397
6817250	0.2635211989	-4.28330145E-5	0.0010825067
6817500	0.2510734714	-5.48902002E-5	0.0010271165
6817750	0.2386139944	-3.81832184E-5	9.884333E-4
6818000	0.226495387	-5.8266571E-5	9.296667E-4
6818250	0.2145617247	-4.09497798E-5	8.88217E-4
6818500	0.2016106657	-5.90153809E-5	8.287015722E-4
6818750	0.18972462	-4.13353945E-5	7.868661777E-4
6819000	0.1766958637	-5.73832442E-5	7.289829335E-4
6819250	0.1646647155	-2.21712398E-5	7.063116937E-4
6819500	0.1517461665	-2.15165916E-5	6.842951021E-4
6819750	0.1398136527	-2.07588138E-5	6.630362883E-4
6820000	0.1268576023	-2.50543824E-5	6.374819059E-4
6820250	0.114854061	-2.94575644E-5	6.075243415E-4
6820500	0.1019560075	-3.28339351E-5	5.741904064E-4
6820750	0.0882968826	-3.71698588E-5	5.365205476E-4
6821000	0.0770647576	-3.82504768E-5	4.977700708E-4
6821250	0.0655633517	-4.11650066E-5	4.561050642E-4
6821500	0.0525698132	-4.54381558E-5	4.101669085E-4
6821750	0.0408598704	-4.41019559E-5	3.655649526E-4
6822000	0.0276743332	-4.43934089E-5	3.206715437E-4
6822250	0.0159869314	-3.87661244E-5	2.814054193E-4
6822500	0.0032753055	-3.33540666E-5	2.475513527E-4
