Acquisition Time (ms)	Shunt Voltage (V)	Sample Voltage (V)	Integrated Sample Voltage (V)	
milliseconds	Volts	Volts	Volts	
3910500	0.0067692176	5.63014999E-5	5.63014999E-5
3910750	0.0185081334	4.68763374E-5	1.031778374E-4
3911000	0.0316202905	5.97182334E-5	1.628960708E-4
3911251	0.043484914	4.68090789E-5	2.097051497E-4
3911500	0.056700202	6.03504637E-5	2.700556134E-4
3911750	0.0685075365	4.75354711E-5	3.175910844E-4
3912000	0.0817289748	5.98482666E-5	3.774393511E-4
3912250	0.0935663953	4.91048368E-5	4.265441879E-4
3912500	0.1060767388	6.37806489E-5	4.903248368E-4
3912750	0.118377665	5.03065226E-5	5.406313594E-4
3913000	0.1335820148	5.60728209E-5	5.967041803E-4
3913250	0.1433091457	5.42523566E-5	6.50956537E-4
3913500	0.1561831259	5.53688483E-5	7.063253852E-4
3913750	0.1683129528	5.42882278E-5	7.606136131E-4
3914000	0.1812105204	5.56916892E-5	8.163053023E-4
3914250	0.1933781137	5.40774844E-5	8.703827867E-4
3914500	0.2062900812	5.78305106E-5	9.282132973E-4
3914750	0.2184198639	5.34228347E-5	9.81636132E-4
3915000	0.2313447735	5.75345731E-5	0.0010391707
3915250	0.2434207114	5.4373422E-5	0.0010935441
3915500	0.2563620528	5.63149516E-5	0.0011498591
3915750	0.2684390508	5.42613244E-5	0.0012041204
3916000	0.2807336807	4.47644195E-5	0.0012488848
3916250	0.2931881664	5.75928638E-5	0.0013064777
3916500	0.3057736199	4.83111861E-5	0.0013547889
3916750	0.3182387066	5.7722897E-5	0.0014125118
3917000	0.3307464628	4.69570477E-5	0.0014594688
3917250	0.3432350487	5.76018316E-5	0.0015170706
3917500	0.3557441743	4.63023979E-5	0.001563373
3917750	0.3682790958	5.70054726E-5	0.0016203785
3918000	0.380802312	4.54683921E-5	0.0016658469
3918250	0.3932978769	5.71758609E-5	0.0017230228
3918500	0.4058930481	4.79121188E-5	0.0017709349
3918750	0.4183611385	5.6023498E-5	0.0018269584
3919000	0.4308593979	4.61499453E-5	0.0018731083
3919250	0.4433824374	5.68619877E-5	0.0019299703
3919500	0.4558268078	4.53024877E-5	0.0019752728
3919750	0.4683849193	5.59696912E-5	0.0020312425
3920000	0.4808761113	4.48361619E-5	0.0020760787
3920250	0.4933722505	5.77811877E-5	0.0021338599
3920500	0.5059549653	4.68808213E-5	0.0021807407
3920750	0.5183914291	5.79739955E-5	0.0022387147
3921000	0.5309495406	4.78045052E-5	0.0022865192
3921250	0.5434504944	5.72969262E-5	0.0023438161
3921500	0.5553968339	4.05091962E-5	0.0023843253
3921750	0.5681322929	6.03414959E-5	0.0024446668
3922000	0.5802151658	4.22713698E-5	0.0024869382
3922250	0.5931728505	6.02563017E-5	0.0025471945
3922500	0.6052182661	4.44595141E-5	0.002591654
3922750	0.6182346544	6.02024949E-5	0.0026518565
3923000	0.6303305136	4.21503045E-5	0.0026940068
3923250	0.6432583385	5.95612969E-5	0.0027535681
3923500	0.6552950524	4.27915025E-5	0.0027963596
3923750	0.668334984	6.03414959E-5	0.0028567011
3924000	0.6804122912	4.22265308E-5	0.0028989276
3924250	0.6934008075	6.01442042E-5	0.0029590718
3924500	0.7054765246	4.21144332E-5	0.0030011862
3924750	0.7183423772	5.94761027E-5	0.0030606623
3925000	0.7298993028	4.47330322E-5	0.0031053954
3925250	0.743007479	6.17763446E-5	0.0031671717
3925500	0.7547801371	4.68808213E-5	0.0032140525
3925750	0.7679757282	6.24578977E-5	0.0032765104
3926000	0.7797829724	4.54325209E-5	0.003321943
3926250	0.7929957903	6.20184753E-5	0.0033839614
3926500	0.8044929963	4.71453716E-5	0.0034311068
3926750	0.8175682208	6.32784518E-5	0.0034943853
3927000	0.8292968842	4.92303861E-5	0.0035436156
3927250	0.8425494121	6.32336128E-5	0.0036068493
3927500	0.8543453926	4.88133832E-5	0.0036556626
3927750	0.8675260097	6.25251563E-5	0.0037181878
3928000	0.8793297643	4.83470574E-5	0.0037665349
3928250	0.8926319849	6.27986743E-5	0.0038293335
3928500	0.9043275199	5.04858787E-5	0.0038798194
3928750	0.9176366754	6.36057767E-5	0.0039434252
3929000	0.9294076549	4.89299647E-5	0.0039923551
3929250	0.9427363341	6.32919035E-5	0.0040556471
3929500	0.9542544331	5.16113382E-5	0.0041072584
3929750	0.9672445837	6.22112831E-5	0.0041694697
3930000	0.9792414551	5.30955098E-5	0.0042225652
3930250	0.9921774959	5.80502218E-5	0.0042806154
3930500	1.004267	5.22659879E-5	0.0043328814
3930750	1.0172904	5.8498612E-5	0.00439138
3931000	1.0293172	5.1759307E-5	0.0044431393
3931250	1.0423472	5.98437827E-5	0.0045029831
3931500	1.0544076	5.1391627E-5	0.0045543747
3931750	1.0673392	5.74090238E-5	0.0046117837
3932000	1.0794191	5.27950884E-5	0.0046645788
3932250	1.0923944	5.98931056E-5	0.0047244719
3932500	1.1044302	5.29206377E-5	0.0047773926
3932750	1.1174414	5.94043603E-5	0.0048367969
3933000	1.1294784	5.42030337E-5	0.004891
3933250	1.1425195	6.11979212E-5	0.0049521979
3933500	1.1545254	5.2584345E-5	0.0050047822
3933750	1.1675754	6.19332812E-5	0.0050667155
3934000	1.1795845	5.24767313E-5	0.0051191922
3934250	1.19257	4.57419102E-5	0.0051649342
3934500	1.2071855	4.2446242E-5	0.0052073804
3934750	1.2170192	4.76386008E-5	0.005255019
3935000	1.2293909	5.61983702E-5	0.0053112174
3935250	1.2420628	4.91362242E-5	0.0053603536
3935500	1.2543944	5.48083605E-5	0.005415162
3935750	1.2670387	4.81946047E-5	0.0054633566
3936000	1.2795	5.65122433E-5	0.0055198688
3936250	1.2921416	5.19924699E-5	0.0055718613
3936500	1.304536	5.53284932E-5	0.0056271898
3936750	1.3174459	5.02347802E-5	0.0056774245
3937000	1.3294215	5.86286452E-5	0.0057360532
3937250	1.3414368	4.28453093E-5	0.0057788985
3937500	1.3542834	5.9969332E-5	0.0058388678
3937750	1.3666301	4.24507259E-5	0.0058813186
3938001	1.3794121	6.06150139E-5	0.0059419336
3938250	1.3915744	4.2585243E-5	0.0059845188
3938500	1.4044722	5.74987018E-5	0.0060420175
3938750	1.4167316	4.22848215E-5	0.0060843023
3939000	1.4295417	5.91487779E-5	0.0061434511
3939250	1.441773	4.26659532E-5	0.0061861171
3939500	1.4545532	5.98437827E-5	0.0062459609
3939750	1.4669035	4.30246654E-5	0.0062889855
3940000	1.4793193	6.01217847E-5	0.0063491073
3940250	1.4911439	4.58450399E-5	0.0063949523
3940750	1.4925307	-4.03399705E-5	0.0063546124
3941000	1.479395	-5.90602199E-5	0.0062955522
3941250	1.4675321	-4.29092406E-5	0.0062526429
3941500	1.4544258	-6.08179056E-5	0.006191825
3941750	1.4429442	-4.5760996E-5	0.006146064
3942000	1.4297649	-6.36293059E-5	0.0060824347
3942250	1.4180418	-4.76128434E-5	0.0060348219
3942500	1.4047235	-6.31405616E-5	0.0059716813
3942750	1.3929888	-4.77204568E-5	0.0059239608
3943000	1.3796282	-6.2337945E-5	0.0058616229
3943250	1.3679626	-4.750523E-5	0.0058141177
3943500	1.3545957	-6.16384578E-5	0.0057524792
3943750	1.3428944	-4.75545528E-5	0.0057049247
3944000	1.329552	-6.12618109E-5	0.0056436628
3944250	1.3178063	-4.64694509E-5	0.0055971934
3944500	1.3044746	-6.16608773E-5	0.0055355325
3944750	1.2927969	-4.65187737E-5	0.0054890137
3945000	1.2794719	-6.15398122E-5	0.0054274739
3945250	1.2677208	-4.74334877E-5	0.0053800404
3945500	1.2543481	-6.2835657E-5	0.0053172048
3945750	1.2427101	-4.76352629E-5	0.0052695695
3946000	1.2293227	-6.34409824E-5	0.0052061285
3946250	1.2177142	-4.92046251E-5	0.0051569239
3946500	1.2042956	-6.32302395E-5	0.0050936937
3946750	1.1928265	-4.94781425E-5	0.0050442155
3947000	1.1797647	-6.24769456E-5	0.0049817386
3947251	1.167806	-4.92404962E-5	0.0049324981
3947500	1.1547599	-6.03740002E-5	0.0048721241
3947750	1.1428002	-5.12672154E-5	0.0048208569
3948000	1.1296712	-6.02215479E-5	0.0047606353
3948250	1.1177562	-5.06035994E-5	0.0047100317
3948500	1.1046138	-6.13111337E-5	0.0046487206
3948750	1.0926693	-5.05901477E-5	0.0045981305
3949000	1.0796521	-6.0840325E-5	0.0045372901
3949250	1.0676658	-5.08860846E-5	0.004486404
3949500	1.0545591	-6.08986156E-5	0.0044255054
3949750	1.0425977	-5.18456375E-5	0.0043736598
3950000	1.0300897	-4.9334658E-5	0.0043243251
3950250	1.0178236	-5.4401456E-5	0.0042699237
3950500	1.0050456	-5.13389577E-5	0.0042185847
3950750	0.9920338067	-4.96350787E-5	0.0041689496
3951000	0.9799664822	-5.35450326E-5	0.0041154046
3951250	0.9676993269	-5.3446387E-5	0.0040619582
3951500	0.9548727866	-5.32042568E-5	0.004008754
3951750	0.9426499351	-5.2074316E-5	0.0039566796
3952000	0.9298115128	-5.32266763E-5	0.003903453
3952250	0.9176070364	-5.37199044E-5	0.0038497331
3952500	0.9047555836	-4.13398784E-5	0.0038083932
3952750	0.892898426	-5.74235993E-5	0.0037509696
3953000	0.8803251196	-4.38598257E-5	0.0037071098
3953250	0.8675545443	-5.45852956E-5	0.0036525245
3953500	0.8554727316	-4.41557626E-5	0.0036083687
3953750	0.8428041478	-5.65582081E-5	0.0035518105
3954000	0.8303442291	-4.35549211E-5	0.0035082556
3954250	0.817834971	-5.7351857E-5	0.0034509037
3954500	0.8054821235	-4.27747239E-5	0.003408129
3954750	0.792818266	-5.62891746E-5	0.0033518398
3955000	0.7803886487	-4.24339481E-5	0.0033094059
3955250	0.7677825231	-5.71635335E-5	0.0032522423
3955500	0.755318894	-4.37297929E-5	0.0032085125
3955750	0.7427719579	-5.66837571E-5	0.0031518288
3956000	0.7303221102	-4.33845332E-5	0.0031084443
3956250	0.7177502614	-5.69483067E-5	0.0030514959
3956500	0.7054187486	-3.95911605E-5	0.0030119048
3956750	0.6931081287	-5.83383132E-5	0.0029535665
3957000	0.6809023273	-4.06538429E-5	0.0029129126
3957250	0.6680170834	-5.88360253E-5	0.0028540766
3957500	0.6560656201	-4.15147502E-5	0.0028125619
3957750	0.6429986998	-5.87194441E-5	0.0027538424
3958000	0.6310877857	-4.25908843E-5	0.0027112515
3958250	0.6179107465	-5.922164E-5	0.0026520299
3958500	0.6059938693	-4.13892012E-5	0.0026106407
3958750	0.5929496973	-6.08089378E-5	0.0025498317
3959000	0.5808949174	-4.20483333E-5	0.0025077834
3959250	0.5679198733	-6.02215479E-5	0.0024475619
3959500	0.5559106782	-4.32589842E-5	0.0024043029
3959750	0.5432653726	-6.18626524E-5	0.0023424402
3960000	0.5315420539	-4.49045726E-5	0.0022975357
3960250	0.5182389941	-6.09972612E-5	0.0022365384
3960500	0.5065329463	-4.57296087E-5	0.0021908088
3960750	0.4932013077	-6.10241646E-5	0.0021297846
3961000	0.4815697327	-4.55233497E-5	0.0020842613
3961250	0.4682189678	-6.19971692E-5	0.0020222641
3961500	0.4566100527	-4.7007518E-5	0.0019752566
3961750	0.4430421861	-5.83024421E-5	0.0019169541
3962000	0.431783019	-4.95947237E-5	0.0018673594
3962250	0.4186528455	-6.16653612E-5	0.0018056941
3962500	0.4067989565	-4.88324621E-5	0.0017568616
3962750	0.3936226682	-6.17191679E-5	0.0016951424
3963000	0.3817765092	-4.91911734E-5	0.0016459513
3963251	0.3685823757	-6.15218766E-5	0.0015844294
3963500	0.3567219052	-4.84468473E-5	0.0015359825
3963750	0.3435720313	-6.08627445E-5	0.0014751198
3964000	0.331713151	-4.90880439E-5	0.0014260317
3964250	0.318594727	-5.19801543E-5	0.0013740516
3964500	0.3069601042	-5.32535796E-5	0.001320798
3964750	0.2940730493	-5.53520411E-5	0.001265446
3965000	0.2819233012	-5.34598387E-5	0.0012119861
3965250	0.2690429162	-5.64012719E-5	0.0011555849
3965500	0.2569094231	-5.24868341E-5	0.001103098
3965750	0.2440432171	-5.46121989E-5	0.0010484858
3966000	0.2318755796	-5.28814166E-5	9.956044073E-4
3966250	0.2189440001	-5.69438228E-5	9.386605845E-4
3966500	0.2068578144	-5.30921595E-5	8.85568425E-4
3966750	0.1939308287	-5.50964593E-5	8.304719657E-4
3967000	0.1818405351	-5.25630603E-5	7.779089054E-4
3967250	0.1688737511	-4.23353024E-5	7.35573603E-4
3967500	0.1568559868	-5.38992601E-5	6.816743429E-4
3967750	0.14460756	-4.62093852E-5	6.354649577E-4
3968000	0.1320326635	-5.57466236E-5	5.797183341E-4
3968250	0.1195362151	-4.70523569E-5	5.326659772E-4
3968500	0.1070203756	-5.53744606E-5	4.772915166E-4
3968750	0.0931412268	-5.68137899E-5	4.204777267E-4
3969000	0.0820773349	-5.60515283E-5	3.644261984E-4
3969250	0.0694524044	-4.78101347E-5	3.166160637E-4
3969500	0.0570104483	-5.58721726E-5	2.607438911E-4
3969750	0.0444193361	-4.64963543E-5	2.142475369E-4
3970000	0.0319837941	-5.48408774E-5	1.594066594E-4
3970250	0.0194413487	-4.60345134E-5	1.13372146E-4
3970500	0.0069646	-5.57824948E-5	5.75896513E-5
