Acquisition Time (ms)	Shunt Voltage (V)	Sample Voltage (V)	Integrated Sample Voltage (V)	
milliseconds	Volts	Volts	Volts	
5748000	0.0123816953	4.3599764E-6	3.2099764E-6
5748250	0.0241438673	1.624796E-6	3.6847724E-6
5748500	0.0372651159	4.2344271E-6	6.7691995E-6
5748750	0.0491438192	2.2704779E-6	7.8896774E-6
5749000	0.0621869452	5.0235939E-6	1.17632713E-5
5749250	0.0740004122	3.2793559E-6	1.38926273E-5
5749500	0.0871867451	5.7275666E-6	1.84701938E-5
5749750	0.098948193	4.1851042E-6	2.1505298E-5
5750000	0.1121071083	1.81434919E-5	3.84987899E-5
5750250	0.1267231449	1.838730026E-4	2.212217925E-4
5750500	0.1365336712	1.688160589E-4	3.888878514E-4
5750750	0.1480358244	1.292994284E-4	5.170372798E-4
5751000	0.1609614408	8.5881803E-5	6.017690828E-4
5751250	0.1729224009	5.50908463E-5	6.557099292E-4
5751500	0.1859953285	6.26507055E-5	7.172106347E-4
5751750	0.197824349	5.33017693E-5	7.69362404E-4
5752000	0.2108817283	6.19287973E-5	8.301412013E-4
5752250	0.2228053637	5.16113382E-5	8.806025395E-4
5752500	0.2358689711	6.31035796E-5	9.425561191E-4
5752750	0.2477784276	5.19745343E-5	9.933807E-4
5753000	0.260779621	6.22875094E-5	0.0010545182
5753250	0.2727024172	5.27861206E-5	0.0011061543
5753500	0.2857544517	6.24937689E-5	0.0011674981
5753750	0.2976153639	5.24677635E-5	0.0012188158
5754000	0.3106870105	6.26910606E-5	0.0012803569
5754251	0.3225624992	5.30372191E-5	0.0013322441
5754500	0.3356118835	6.23816714E-5	0.0013934758
5754750	0.3475540267	5.19386631E-5	0.0014442644
5755001	0.359975163	6.7031478E-5	0.0015101459
5755250	0.3722358694	5.57634317E-5	0.0015647593
5755500	0.3848807774	5.29654767E-5	0.0016165748
5755751	0.3971082227	5.63777263E-5	0.0016718025
5756000	0.4098218171	5.24408601E-5	0.0017230934
5756250	0.4220209045	5.67498902E-5	0.0017786933
5756500	0.434745895	5.38488054E-5	0.0018313921
5756750	0.4469738262	5.66243409E-5	0.0018868664
5757000	0.4597471843	5.57544639E-5	0.0019414709
5757250	0.4719160144	5.62701126E-5	0.001996591
5757500	0.4846421533	5.44317127E-5	0.0020498727
5757750	0.4968748992	5.49294259E-5	0.0021036522
5758000	0.5095602239	5.30192835E-5	0.0021555214
5758250	0.5217956643	5.68395682E-5	0.002211211
5758500	0.5338371045	5.75749282E-5	0.0022676359
5758750	0.5465132416	5.85972579E-5	0.0023250832
5759000	0.5588592426	4.34685717E-5	0.0023674018
5759250	0.5714060904	5.88842276E-5	0.002425136
5759501	0.5837805378	4.55760058E-5	0.002469562
5759750	0.5963343204	5.94850705E-5	0.0025278971
5760000	0.6087122131	4.419048E-5	0.0025709375
5760250	0.6213156001	5.90994549E-5	0.002628887
5760500	0.633612306	4.71408877E-5	0.0026748779
5760750	0.6462233789	5.87855818E-5	0.0027325135
5761000	0.6585310834	4.41859961E-5	0.0027755495
5761250	0.6711852232	5.97272013E-5	0.0028341267
5761500	0.6835439456	4.58271043E-5	0.0028788038
5761751	0.6961656637	5.91263584E-5	0.0029367801
5762000	0.7084588359	4.41052858E-5	0.0029797354
5762250	0.7210372661	5.90097769E-5	0.0030375952
5762500	0.7333704133	4.50738087E-5	0.003081519
5762750	0.7459799843	5.81937067E-5	0.0031385627
5763000	0.7584255474	4.60109443E-5	0.0031834237
5763250	0.7709466433	5.96868461E-5	0.0032419605
5763500	0.7824484432	4.46343863E-5	0.0032854449
5763750	0.7955226958	6.08123056E-5	0.0033451072
5764000	0.8074193426	4.48182263E-5	0.0033887754
5764250	0.8203997755	6.10454685E-5	0.0034486709
5764500	0.8323255312	4.42442868E-5	0.0034917652
5764750	0.8453103371	6.16552792E-5	0.0035522705
5765000	0.857260166	4.38228E-5	0.0035949433
5765250	0.8702794697	6.17763446E-5	0.0036555696
5765500	0.8822332299	4.34820234E-5	0.0036979016
5765750	0.8951691382	6.16956343E-5	0.0037584473
5766000	0.9071099562	4.35851532E-5	0.0038008824
5766250	0.920199713	6.09826939E-5	0.0038607151
5766500	0.9314424925	4.72798886E-5	0.003906845
5766750	0.9446962131	6.35654216E-5	0.0039692604
5767000	0.9564315464	4.75265033E-5	0.0040156369
5767250	0.9696223229	6.38434235E-5	0.0040783303
5767501	0.9814269167	4.6575916E-5	0.0041237563
5767750	0.9946365102	6.27269319E-5	0.0041853332
5768000	1.0062645	4.80062808E-5	0.0042321895
5768250	1.0195109	6.16552792E-5	0.0042926947
5768500	1.0309196	5.08042358E-5	0.004342349
5768750	1.0440946	6.32201611E-5	0.0044044191
5769000	1.055842	5.10060114E-5	0.0044542752
5769250	1.0689796	6.33681299E-5	0.0045164933
5769500	1.0808194	5.12750455E-5	0.0045666183
5769750	1.0939268	6.32650001E-5	0.0046287333
5770000	1.1057846	5.13333363E-5	0.0046789167
5770250	1.1189244	6.31439348E-5	0.0047409106
5770500	1.1307212	5.15440797E-5	0.0047913047
5770750	1.1434165	5.39743547E-5	0.004844129
5771000	1.1554168	5.5104298E-5	0.0048980833
5771250	1.1681972	5.58306902E-5	0.004952764
5771500	1.1803719	5.51715566E-5	0.0050067856
5771750	1.1931433	5.68216326E-5	0.0050624572
5772000	1.2083331	4.49303239E-5	0.0051062375
5772250	1.2182358	5.72969262E-5	0.0051623845
5772501	1.2303384	5.34721576E-5	0.0052147066
5772750	1.2431596	4.28901483E-5	0.0052564468
5773000	1.2551999	5.54181712E-5	0.0053107149
5773250	1.2681436	5.65436307E-5	0.0053661086
5773500	1.2802203	5.38981283E-5	0.0054188567
5773751	1.292502	4.67552721E-5	0.005464462
5774000	1.3049441	5.73731526E-5	0.0055206851
5774250	1.317363	4.84815744E-5	0.0055680167
5774500	1.3298648	5.86510647E-5	0.0056255178
5774750	1.3423772	4.64727862E-5	0.0056708406
5775000	1.3548202	5.81085125E-5	0.0057277991
5775250	1.3672689	4.56522321E-5	0.0057723013
5775500	1.3798041	5.7857414E-5	0.0058290087
5775750	1.3922653	4.57777814E-5	0.0058736365
5776000	1.4047662	5.85569028E-5	0.0059310434
5776250	1.4172818	4.75982457E-5	0.0059774916
5776500	1.4297568	5.85165476E-5	0.0060348582
5776750	1.4422662	4.68180467E-5	0.0060805262
5777000	1.4547229	5.72072482E-5	0.0061365835
5777251	1.4671708	4.85084778E-5	0.006183942
5777500	1.4796445	5.79829633E-5	0.0062407749
5777750	1.4921828	4.09396509E-5	0.0062805646
5778000	1.4934721	-4.51063477E-5	0.0062343082
5778250	1.4819464	-3.8532962E-5	0.0061946253
5778500	1.4690454	-5.8432475E-5	0.0061350428
5778750	1.4570729	-4.05013906E-5	0.0060933914
5779001	1.4440334	-5.80782475E-5	0.0060341632
5779250	1.4320458	-4.11829422E-5	0.0059918302
5779500	1.4191234	-5.81275703E-5	0.0059325526
5779750	1.4070191	-4.00485175E-5	0.0058913541
5780000	1.3941444	-5.75132771E-5	0.0058326908
5780250	1.3818587	-4.13667818E-5	0.0057901741
5780500	1.3692255	-5.81903448E-5	0.0057308337
5780750	1.3571216	-4.03220349E-5	0.0056893617
5781000	1.3442086	-5.64236913E-5	0.005631788
5781250	1.3321345	-4.09632315E-5	0.0055896748
5781500	1.3192862	-5.86073468E-5	0.0055299174
5781750	1.3072125	-4.19496877E-5	0.0054868177
5782000	1.2943049	-5.86118307E-5	0.0054270559
5782250	1.2821907	-4.06403912E-5	0.0053852655
5782500	1.2697219	-5.95758675E-5	0.0053245396
5782750	1.257986	-4.35100822E-5	0.0052798796
5783000	1.2447999	-6.03650325E-5	0.0052183645
5783250	1.2330546	-4.39270841E-5	0.0051732874
5783500	1.2197897	-6.00332244E-5	0.0051121042
5783750	1.2083553	-4.5384349E-5	0.0050655699
5784000	1.1952642	-6.10555518E-5	0.0050033643
5784250	1.183624	-4.73751971E-5	0.0049548391
5784500	1.1703872	-6.14097793E-5	0.0048922793
5784750	1.1586503	-4.77294246E-5	0.0048433999
5785000	1.1454113	-6.15756833E-5	0.0047806742
5785250	1.1336842	-4.60479651E-5	0.0047334763
5785501	1.1204514	-6.03695163E-5	0.0046719567
5785750	1.1087756	-4.80522648E-5	0.0046227545
5786000	1.0958996	-5.7683665E-5	0.0045639208
5786250	1.0840309	-5.20384449E-5	0.0045107324
5786500	1.0710618	-5.80961831E-5	0.0044514862
5786750	1.0590224	-5.02583397E-5	0.0044000778
5787000	1.0460908	-5.73025342E-5	0.0043416253
5787250	1.0340701	-5.16483463E-5	0.004288827
5787500	1.0211073	-5.86163145E-5	0.0042290607
5787750	1.0091094	-5.01552102E-5	0.0041777554
5788000	0.9949839613	-6.04547103E-5	0.0041161507
5788250	0.9841659327	-5.07515679E-5	0.0040642492
5788500	0.9717025244	-5.86835729E-5	0.0040044156
5788750	0.959415227	-5.30428367E-5	0.0039502228
5789000	0.9468884771	-4.53305423E-5	0.0039037422
5789250	0.9344997183	-5.53206539E-5	0.0038472716
5789500	0.9219268978	-4.78729091E-5	0.0037982487
5789750	0.909542777	-5.43341976E-5	0.0037427645
5790000	0.896902772	-4.68191945E-5	0.0036947953
5790250	0.8845489526	-5.37423239E-5	0.0036399029
5790500	0.8720254714	-4.76397468E-5	0.0035911132
5790751	0.8596285851	-5.3320838E-5	0.0035366423
5791000	0.8470514358	-4.81778138E-5	0.0034873145
5791250	0.8346970864	-5.3984454E-5	0.0034321801
5791500	0.8221390191	-4.67743556E-5	0.0033842557
5791750	0.8097677521	-5.45808117E-5	0.0033285249
5792000	0.7971508045	-4.84737507E-5	0.0032789012
5792250	0.7848252106	-5.3029385E-5	0.0032247218
5792500	0.7722400221	-4.80702004E-5	0.0031755016
5792750	0.7599267962	-5.39261634E-5	0.0031204254
5793000	0.7473061382	-4.73124226E-5	0.003071963
5793250	0.7349782474	-5.30697401E-5	0.0030177433
5793501	0.7223037005	-4.94019163E-5	0.0029671913
5793750	0.7102814306	-5.53699767E-5	0.0029106714
5794000	0.6974865612	-3.67169857E-5	0.0028728044
5794250	0.6851642801	-5.56345263E-5	0.0028160198
5794500	0.672568093	-5.11775376E-5	0.0027636923
5794750	0.6603999255	-5.51233626E-5	0.0027074189
5795000	0.6476698553	-3.77079258E-5	0.002668561
5795250	0.6355307083	-5.63833363E-5	0.0026110277
5795500	0.6232636413	-4.08107791E-5	0.0025690669
5795750	0.6105668762	-5.73653087E-5	0.0025105516
5796000	0.5980881847	-4.02009698E-5	0.0024692006
5796250	0.5856038834	-5.67554993E-5	0.0024112951
5796500	0.5733223282	-4.01785504E-5	0.0023699666
5796750	0.5606873146	-5.6396788E-5	0.0023124198
5797000	0.5484117667	-4.00305819E-5	0.0022712392
5797250	0.5357300641	-5.64550786E-5	0.0022136341
5797500	0.5235304907	-4.0357906E-5	0.0021721262
5797750	0.5108243614	-5.55896874E-5	0.0021153865
5798000	0.4986738182	-3.97256773E-5	0.0020745109
5798250	0.4862214086	-5.83248616E-5	0.002015036
5798500	0.4744287851	-4.24832709E-5	0.0019714027
5798750	0.4612726831	-5.94592863E-5	0.0019107934
5799000	0.4493816461	-4.19765911E-5	0.0018676668
5799250	0.4363702491	-5.89660581E-5	0.0018075508
5799500	0.4244928168	-4.24877548E-5	0.001763913
5799750	0.4114610127	-5.90333165E-5	0.0017037297
5800000	0.3996184316	-4.26715943E-5	0.0016599081
5800251	0.3864629037	-5.88270575E-5	0.0015999311
5800500	0.3747053965	-4.24204964E-5	0.0015563606
5800750	0.3615498245	-5.86028629E-5	0.0014966077
5801000	0.3497068016	-4.19945266E-5	0.0014534632
5801250	0.3366235822	-5.86073468E-5	0.0013937058
5801500	0.3247881126	-4.28285306E-5	0.0013497273
5801750	0.3116922601	-5.89032836E-5	0.001289674
5802000	0.3003890985	-4.45368934E-5	0.0012439871
5802250	0.287190327	-6.04502264E-5	0.0011823869
5802500	0.2755114887	-4.6218353E-5	0.0011350185
5802750	0.2621751679	-6.0217064E-5	0.0010736515
5803000	0.2505416494	-4.54112524E-5	0.0010270902
5803250	0.2372823633	-6.0468162E-5	9.654721E-4
5803500	0.2256565747	-4.68236784E-5	9.174984E-4
5803750	0.2128940828	-5.91274782E-5	8.572209E-4
5804000	0.2009945207	-4.93481096E-5	8.067228E-4
5804250	0.1879151442	-5.98538688E-5	7.457189E-4
5804500	0.1760506099	-4.96485304E-5	6.949204035E-4
5804750	0.1629683622	-5.98628365E-5	6.339075669E-4
5805000	0.1511051973	-4.95454009E-5	5.83212166E-4
5805250	0.1380511308	-6.04098714E-5	5.216522947E-4
5805500	0.1261695907	-5.2823126E-5	4.676791687E-4
5805750	0.1130652132	-3.15649937E-5	4.34964175E-4
5806000	0.1011927281	-1.93957106E-5	4.144184644E-4
5806250	0.0871289287	-2.15524627E-5	3.917160017E-4
5806500	0.0762846049	-2.14224298E-5	3.691435719E-4
5806750	0.0632070885	-2.55027716E-5	3.424908002E-4
5807000	0.0513688635	-2.53817065E-5	3.159590937E-4
5807250	0.0382931841	-3.20896091E-5	2.827194847E-4
5807500	0.0264706167	-3.50041389E-5	2.465653458E-4
5807750	0.0133043665	-3.71698588E-5	2.08245487E-4
5808000	0.0017681143	-3.29460324E-5	1.741494545E-4
