Acquisition Time (ms)	Shunt Voltage (V)	Sample Voltage (V)	Integrated Sample Voltage (V)	
milliseconds	Volts	Volts	Volts	
11526500	0.0033606824	4.2030398E-6	3.2030398E-6
11526750	0.0153721779	3.4362925E-6	5.6393323E-6
11527000	0.0277367758	3.6784232E-6	8.3177556E-6
11527250	0.0400981242	3.7008427E-6	1.10185983E-5
11527500	0.0524829612	3.8757149E-6	1.38943132E-5
11527750	0.0647897115	3.4004213E-6	1.62947345E-5
11528000	0.0772041249	3.6649715E-6	1.89597061E-5
11528250	0.0896035959	4.1761364E-6	2.21358424E-5
11528500	0.1019034985	3.5304545E-6	2.46662969E-5
11528750	0.114382509	4.7097208E-6	2.83760177E-5
11529000	0.1293067222	2.6560935E-6	3.00321112E-5
11529250	0.1390636246	4.2523627E-6	3.32844739E-5
11529500	0.1514665624	3.9878125E-6	3.62722864E-5
11529750	0.1639055881	4.0147159E-6	3.92870023E-5
11530000	0.1762083013	3.7322301E-6	4.20192324E-5
11530251	0.1886380953	4.4137832E-6	4.54330156E-5
11530500	0.2009826387	3.8353598E-6	4.82683754E-5
11530750	0.2125540082	3.6918749E-6	5.09602503E-5
11531000	0.2254636788	4.2927178E-6	5.42529682E-5
11531250	0.2372592617	2.588835E-6	5.58418032E-5
11531500	0.2501488343	4.3151374E-6	5.91569405E-5
11531750	0.2620647398	2.2301228E-6	6.03870633E-5
11532000	0.2749194613	4.5213969E-6	6.39084602E-5
11532250	0.2867929623	2.7592233E-6	6.56676835E-5
11532500	0.2996575782	4.5079452E-6	6.91756286E-5
11532750	0.3116806873	2.6829969E-6	7.08586256E-5
11533000	0.3240603027	4.8487217E-6	7.47073473E-5
11533250	0.3354442094	3.0192896E-6	7.67266369E-5
11533500	0.3486950588	4.8980446E-6	8.06246815E-5
11533750	0.3599983088	3.0192896E-6	8.26439711E-5
11534000	0.3730268	5.2791763E-6	8.69231475E-5
11534250	0.38469835	3.2972915E-6	8.9220439E-5
11534500	0.3973016487	5.7455022E-6	9.39659412E-5
11534750	0.4092689253	3.3466145E-6	9.63125557E-5
11535000	0.4220181659	5.5437266E-6	1.008562822E-4
11535250	0.4339969712	3.8084564E-6	1.036647386E-4
11535500	0.4468043411	6.12215E-6	1.087868886E-4
11535750	0.4587156969	3.1941618E-6	1.109810504E-4
11536000	0.4715814612	7.3238358E-6	1.173048861E-4
11536250	0.4835076586	4.3510086E-6	1.206558947E-4
11536500	0.4962663517	6.9696075E-6	1.266255022E-4
11536750	0.5082475865	4.8756251E-6	1.305011273E-4
11537000	0.5210735525	8.0367762E-6	1.375379035E-4
11537250	0.5330685245	5.4630163E-6	1.420009199E-4
11537500	0.5458944022	1.05791488E-5	1.515800687E-4
11537750	0.5577753681	7.4179977E-6	1.579980664E-4
11538000	0.5705197498	1.54441827E-5	1.724422491E-4
11538250	0.5822789356	1.9331726E-5	1.90773975E-4
11538500	0.5946695496	4.46299024E-5	2.344038775E-4
11538750	0.6069501772	1.865498922E-4	4.199537697E-4
11539000	0.6193559861	3.395585723E-4	7.58512342E-4
11539250	0.6317416088	3.712776968E-4	0.00112879
11539500	0.6441497588	3.429439185E-4	0.001470734
11539750	0.656498101	3.263579641E-4	0.0017960919
11540000	0.6689730379	2.908095872E-4	0.0020859015
11540250	0.6812476582	2.659418653E-4	0.0023508434
11540500	0.693760715	2.234927628E-4	0.0025733361
11540750	0.7060575534	1.631394386E-4	0.0027354756
11541001	0.7186356303	7.14257022E-5	0.0028059013
11541250	0.7308326416	5.8269933E-5	0.0028631712
11541500	0.7432505535	5.24363762E-5	0.0029146076
11541750	0.7555843191	5.67857614E-5	0.0029703933
11542000	0.7680407925	3.94509953E-5	0.0030088443
11542250	0.7800030336	5.96420071E-5	0.0030674864
11542500	0.7920332543	4.35313464E-5	0.0031100177
11542750	0.8047059902	5.98662022E-5	0.0031688839
11543000	0.8168369213	4.31905698E-5	0.0032110745
11543250	0.8294531622	5.90725515E-5	0.003269147
11543500	0.8416136881	4.41321893E-5	0.0033122792
11543750	0.8539212159	6.06419173E-5	0.0033719211
11544000	0.8663054693	4.32174732E-5	0.0034141386
11544250	0.8786624248	6.27583192E-5	0.0034758969
11544500	0.8902198363	4.64593345E-5	0.0035213563
11544750	0.9033143636	6.26058665E-5	0.0035829621
11545001	0.9150871983	4.50334536E-5	0.0036269956
11545250	0.9281180748	6.24848011E-5	0.0036884804
11545500	0.9398307041	4.57060389E-5	0.0037331864
11545750	0.9529487747	6.25072206E-5	0.0037946936
11546000	0.9645544211	4.57777814E-5	0.0038394714
11546250	0.9777091539	6.13862451E-5	0.0038998577
11546500	0.9893954129	4.49796468E-5	0.0039438373
11546750	1.0020881	6.34488401E-5	0.0040062861
11547000	1.0137353	4.80287003E-5	0.0040533148
11547250	1.0267898	6.30632245E-5	0.0041153781
11547500	1.0383981	4.94590651E-5	0.0041638371
11547750	1.0515378	6.33098391E-5	0.004226147
11548000	1.0631698	4.95621949E-5	0.0042747092
11548250	1.0763074	6.39465533E-5	0.0043376557
11548500	1.0879506	4.97280993E-5	0.0043863838
11548750	1.1010918	6.3134967E-5	0.0044485188
11549000	1.112686	4.89209969E-5	0.0044964398
11549250	1.125911	6.3040805E-5	0.0045584806
11549500	1.1374664	4.81587335E-5	0.0046056393
11549750	1.1506403	6.3776165E-5	0.0046684155
11550000	1.1622424	4.85308974E-5	0.0047159464
11550251	1.1749361	6.16552792E-5	0.0047766017
11550500	1.1867572	5.34631898E-5	0.0048290649
11550750	1.19972	6.22830255E-5	0.0048903479
11551000	1.2145962	4.83605091E-5	0.0049377084
11551250	1.2244878	6.25789631E-5	0.0049992874
11551500	1.2362835	5.35349323E-5	0.0050518223
11551750	1.2491804	6.042669E-5	0.005111249
11552000	1.2611062	5.23691177E-5	0.0051626181
11552250	1.2740013	6.21395407E-5	0.0052237576
11552500	1.2858772	5.11898514E-5	0.0052739475
11552750	1.2987977	6.25341241E-5	0.0053354816
11553000	1.3107007	5.45438103E-5	0.0053890254
11553250	1.3230042	5.17951782E-5	0.0054398206
11553500	1.335179	5.51222337E-5	0.0054939428
11553750	1.3477899	5.17727587E-5	0.0055447156
11554000	1.3599905	5.68306004E-5	0.0056005462
11554250	1.3724927	5.07549129E-5	0.0056503011
11554500	1.3847477	5.61849185E-5	0.005705486
11554750	1.3973537	5.15126923E-5	0.0057559987
11555000	1.409537	5.43061634E-5	0.0058093049
11555250	1.4221902	4.92931607E-5	0.005857598
11555500	1.4342986	5.61580151E-5	0.0059127561
11555750	1.4469064	5.10060114E-5	0.0059627621
11556000	1.4590999	5.55392366E-5	0.0060173013
11556250	1.471705	5.18758884E-5	0.0060681772
11556500	1.4839239	2.47572477E-5	0.0060919344
11556750	1.4803297	-3.29594841E-5	0.006057975
11557000	1.4679985	-5.39485829E-5	0.0060030264
11557250	1.4559146	-3.86271237E-5	0.0059633992
11557500	1.4432641	-5.52713311E-5	0.0059071279
11557750	1.4310341	-4.05013906E-5	0.0058656265
11558000	1.4184713	-5.67016926E-5	0.0058079248
11558250	1.4063094	-4.11246516E-5	0.0057658002
11558500	1.3937252	-5.7060404E-5	0.0057077398
11558750	1.3814769	-4.23173669E-5	0.0056644224
11559000	1.3688767	-5.71411141E-5	0.0056062813
11559250	1.3566405	-4.21066239E-5	0.0055631747
11559500	1.3441258	-5.66120148E-5	0.0055055627
11559750	1.3317144	-4.1815171E-5	0.0054627475
11560000	1.3192813	-5.68675966E-5	0.0054048799
11560250	1.3070655	-3.84836392E-5	0.0053653963
11560500	1.2948845	-5.97417715E-5	0.0053046545
11560750	1.283112	-4.24698192E-5	0.0052611847
11561000	1.270138	-6.0257419E-5	0.0051999272
11561250	1.2582889	-4.0317551E-5	0.0051586097
11561500	1.2452712	-5.86701213E-5	0.0050989396
11561750	1.233493	-4.052381E-5	0.0050574158
11562000	1.2205025	-6.0010805E-5	0.004996405
11562250	1.2087946	-4.28150789E-5	0.0049525899
11562500	1.1957796	-5.97866104E-5	0.0048918033
11562750	1.1839799	-4.24473997E-5	0.0048483559
11563000	1.1710064	-5.74953415E-5	0.0047898605
11563250	1.159192	-4.23083991E-5	0.0047465521
11563500	1.1462666	-5.78271495E-5	0.004687725
11563750	1.1345119	-4.21290434E-5	0.0046445959
11564000	1.1219064	-5.97059003E-5	0.00458389
11564250	1.1103441	-4.57699638E-5	0.0045371201
11564500	1.0971202	-5.99659661E-5	0.0044761541
11564750	1.0855473	-4.49807988E-5	0.0044301733
11565000	1.0723849	-6.1172133E-5	0.0043680012
11565250	1.0607291	-4.65053221E-5	0.0043204958
11565500	1.0475185	-6.13559726E-5	0.0042581399
11565750	1.0359274	-4.43754733E-5	0.0042127644
11566001	1.0227204	-5.93965118E-5	0.0041523679
11566250	1.0112067	-4.52677679E-5	0.0041061001
11566500	0.9970873086	-5.80916992E-5	0.0040470084
11566750	0.9863577109	-4.50884122E-5	0.00400092
11567000	0.9737264518	-6.0382968E-5	0.003939537
11567250	0.9618978729	-4.90656244E-5	0.0038894714
11567501	0.9489085616	-6.12438753E-5	0.0038272275
11567750	0.9371526003	-4.89624949E-5	0.0037772651
11568000	0.9240980038	-6.06071626E-5	0.0037156579
11568250	0.9123109018	-4.87069131E-5	0.003665951
11568500	0.899314258	-6.05264526E-5	0.0036044245
11568751	0.8875908509	-4.85499769E-5	0.0035548745
11569000	0.8746125382	-6.04636781E-5	0.0034934109
11569250	0.8628234927	-4.80298454E-5	0.003444381
11569500	0.8497870506	-5.97686748E-5	0.0033836123
11569750	0.8380756139	-4.78460058E-5	0.0033347663
11570000	0.8250324578	-4.94512392E-5	0.0032843151
11570250	0.8135589276	-4.97202727E-5	0.0032335948
11570500	0.8009189226	-5.08681491E-5	0.0031817267
11570750	0.788862155	-5.32894508E-5	0.0031274372
11571000	0.7761895958	-5.26348025E-5	0.0030738024
11571250	0.7641129953	-5.03569854E-5	0.0030224454
11571500	0.7513531537	-5.44597466E-5	0.0029669857
11571750	0.7393680318	-5.08726329E-5	0.0029151131
11572000	0.7264418854	-5.2948675E-5	0.0028611644
11572250	0.7146384842	-5.13165383E-5	0.0028088478
11572500	0.7018694549	-5.24823502E-5	0.0027553655
11572750	0.6898525298	-5.0787439E-5	0.0027035781
11573000	0.6770455574	-5.58049142E-5	0.0026467731
11573250	0.6650894561	-5.14689906E-5	0.0025943042
11573500	0.6523427775	-5.32356441E-5	0.0025400685
11573750	0.6402810628	-1.547913156E-4	0.0023842772
11574000	0.6276223733	-5.02628236E-5	0.0023330144
11574250	0.6155917109	-4.10484254E-5	0.0022909659
11574500	0.6028637168	-3.1717446E-5	0.0022582485
11574750	0.5910855815	-3.14394447E-5	0.0022258091
11575001	0.5786098053	-3.48785899E-5	0.0021899305
11575250	0.5663560339	-3.99140007E-5	0.0021490165
11575500	0.5539083947	-4.41692143E-5	0.0021038473
11575750	0.5415394688	-4.91373667E-5	0.0020537099
11576000	0.5291869304	-4.98503056E-5	0.0020028596
11576250	0.51677507	-5.19218637E-5	0.0019499377
11576500	0.5044832671	-5.47377479E-5	0.0018942
11576750	0.4920062099	-5.97148681E-5	0.0018334851
11577000	0.4796795117	-6.30150127E-5	0.0017694701
11577250	0.4672471117	-6.23872678E-5	0.0017060828
11577500	0.4548167435	-6.53556043E-5	0.0016397272
11577751	0.4427533944	-6.77589705E-5	0.0015709682
11578000	0.4309107249	-6.41404696E-5	0.0015058278
11578250	0.4180612156	-6.73554202E-5	0.0014374724
11578500	0.4062198271	-6.20106208E-5	0.0013744617
11578750	0.3933372335	-6.69742894E-5	0.0013064874
11579000	0.3813407155	-6.09838096E-5	0.0012445036
11579250	0.3686018552	-6.4413987E-5	0.0011790896
11579500	0.3565821473	-6.35261764E-5	0.0011145635
11579750	0.3438556992	-6.42615347E-5	0.0010493019
11580000	0.3319054285	-5.90288326E-5	9.892731E-4
11580250	0.3190518554	-5.49215875E-5	9.333515E-4
11580500	0.3078988761	-5.49215875E-5	8.774299E-4
11580750	0.294721086	-5.04780504E-5	8.259519E-4
11581000	0.2831753357	-5.14645067E-5	7.734873708E-4
11581250	0.2699743115	-5.3486742E-5	7.190006287E-4
11581500	0.2583200766	-4.56130275E-5	6.723876012E-4
11581750	0.2456274195	-4.54157363E-5	6.259718649E-4
11582001	0.2340094934	-4.34293721E-5	5.815424928E-4
11582250	0.2209330763	-3.74478601E-5	5.430946327E-4
11582500	0.2092619239	-4.01830342E-5	5.019115985E-4
11582750	0.1961751707	-3.85688331E-5	4.623427654E-4
11583000	0.1845272965	-3.2923613E-5	4.284191524E-4
11583250	0.1714525138	-3.05426663E-5	3.968764861E-4
11583500	0.1597252196	-2.77895566E-5	3.680869295E-4
11583750	0.1466277328	-2.89688202E-5	3.381181093E-4
11584000	0.1349851592	-2.1790109E-5	3.153280004E-4
11584250	0.1219005704	-2.32115028E-5	2.911164976E-4
11584500	0.1102460264	-1.82747376E-5	2.7184176E-4
11584750	0.0962021395	-1.97768414E-5	2.510649186E-4
11585000	0.0857544671	-1.77456383E-5	2.323192802E-4
11585250	0.072822817	-1.8880063E-5	2.124392172E-4
11585500	0.0609914709	-1.60641788E-5	1.953750384E-4
11585750	0.0481798429	-1.67457304E-5	1.77629308E-4
11586000	0.0362232049	-1.24860329E-5	1.641432751E-4
11586250	0.0234731479	-1.41719763E-5	1.489712987E-4
11586500	0.0114427364	-1.16385773E-5	1.363327214E-4
