Acquisition Time (ms)	Shunt Voltage (V)	Sample Voltage (V)	Integrated Sample Voltage (V)	
milliseconds	Volts	Volts	Volts	
6199250	0.0129439157	4.3958476E-6	2.9458476E-6
6199500	0.02532591	4.3958476E-6	5.8916952E-6
6199750	0.037831815	3.9295218E-6	8.371217E-6
6200000	0.0503474731	4.0147159E-6	1.09359329E-5
6200250	0.0627229996	4.1851042E-6	1.3671037E-5
6200500	0.074279397	2.862353E-6	1.50833901E-5
6200750	0.0873227064	4.3644603E-6	1.79978504E-5
6201000	0.0992307491	2.6964486E-6	1.9244299E-5
6201250	0.1122865157	5.3912739E-6	2.31855729E-5
6201500	0.1272437033	1.18256736E-5	3.35612465E-5
6201750	0.137176584	1.596958017E-4	1.918070482E-4
6202000	0.1492170966	1.764611122E-4	3.668181604E-4
6202250	0.1620478772	1.696590325E-4	5.350271929E-4
6202500	0.1740280077	1.189774855E-4	6.525546784E-4
6202750	0.1870261091	7.82098463E-5	7.293145247E-4
6203001	0.1990063279	4.67463043E-5	7.74610829E-4
6203250	0.2119623341	6.10409846E-5	8.342018136E-4
6203500	0.223907746	4.33385386E-5	8.760903521E-4
6203750	0.2369074376	6.04446256E-5	9.350849777E-4
6204000	0.248997422	4.40290595E-5	9.77664E-4
6204250	0.2618174249	6.06329495E-5	0.001036847
6204500	0.2738832476	4.39707688E-5	0.0010793678
6204750	0.2867818311	6.02921729E-5	0.0011382099
6205000	0.2987639935	4.34685717E-5	0.0011802285
6205250	0.3117284806	6.08885319E-5	0.001239667
6205500	0.3231097812	4.50782926E-5	0.0012832953
6205750	0.3362132753	6.31439348E-5	0.0013449893
6206000	0.3478641973	4.67328526E-5	0.0013902721
6206251	0.361192744	6.37627133E-5	0.0014525848
6206500	0.3728462721	4.70018867E-5	0.0014981367
6206750	0.3861015828	6.23188967E-5	0.0015590056
6207000	0.3977593514	4.58898789E-5	0.0016034455
6207250	0.4110368802	6.38703269E-5	0.0016658658
6207500	0.4227348005	4.7078113E-5	0.0017114939
6207750	0.4359424062	6.33726138E-5	0.0017734165
6208000	0.4472019266	4.96698085E-5	0.0018216363
6208251	0.4603948234	6.40541669E-5	0.0018842405
6208500	0.4721149617	5.0979108E-5	0.0019337696
6208750	0.4852854636	6.29376753E-5	0.0019952573
6209000	0.4970605952	5.18624367E-5	0.0020456697
6209250	0.5096918101	5.86869359E-5	0.0021029067
6209500	0.52173007	5.49070063E-5	0.0021563637
6209750	0.5346601918	5.82026745E-5	0.0022131164
6210000	0.5466765869	5.41940659E-5	0.0022658604
6210250	0.5595983604	5.75300892E-5	0.0023219405
6210500	0.5716264167	5.44900034E-5	0.0023749805
6210750	0.584514885	5.9601652E-5	0.0024331322
6211000	0.5965682073	5.51267176E-5	0.0024868089
6211250	0.6093525198	4.40021561E-5	0.002529361
6211500	0.621444006	5.60593692E-5	0.0025839704
6211750	0.6338595768	4.78045052E-5	0.0026303249
6212000	0.6461478902	5.66736638E-5	0.0026855486
6212251	0.6586836951	4.86205754E-5	0.0027327192
6212500	0.6710406065	5.72834745E-5	0.0027885526
6212750	0.6835580362	4.82304759E-5	0.0028353331
6213000	0.6959967527	5.62476931E-5	0.0028901308
6213251	0.7085615782	4.94994202E-5	0.0029381802
6213500	0.7209135866	5.73238297E-5	0.002994054
6213750	0.7334614503	5.24812152E-5	0.0030450853
6214000	0.7458520202	5.63418551E-5	0.0030999771
6214250	0.7584183475	4.95263237E-5	0.0031480534
6214500	0.7707552492	5.76466706E-5	0.0032042501
6214750	0.7832962222	4.83739608E-5	0.0032511741
6215000	0.7956976141	5.68081809E-5	0.0033065323
6215250	0.8074977024	4.30470849E-5	0.0033481293
6215500	0.8202821916	6.061053E-5	0.0034072899
6215750	0.8323583063	4.29932781E-5	0.0034488331
6216000	0.8451755264	6.0700208E-5	0.0035080834
6216250	0.8573602581	4.22803376E-5	0.0035489137
6216500	0.870065239	5.93909086E-5	0.0036068546
6216750	0.8822829667	4.29887942E-5	0.0036483934
6217000	0.8950815907	5.93819408E-5	0.0037063253
6217250	0.9071713101	4.28722127E-5	0.0037477475
6217500	0.9200287702	5.92608754E-5	0.0038055584
6217750	0.9320684877	4.29887942E-5	0.0038470972
6218000	0.9449166277	5.99738159E-5	0.003905621
6218250	0.9571255211	4.33519903E-5	0.003947523
6218500	0.9698478172	5.93595213E-5	0.0040054325
6218750	0.9819955776	4.43205132E-5	0.0040483031
6219000	0.9943889744	6.26372538E-5	0.0041094903
6219250	1.0061881	4.59212663E-5	0.0041539616
6219500	1.0193741	6.12696636E-5	0.0042137812
6219750	1.0311784	4.59840409E-5	0.0042583153
6220000	1.0443159	6.22112831E-5	0.0043190766
6220250	1.0561342	4.61230419E-5	0.0043637496
6220500	1.0692553	6.26058665E-5	0.0044249055
6220750	1.0807371	4.79390223E-5	0.0044713945
6221000	1.0938401	6.30183855E-5	0.0045329629
6221250	1.105487	4.97236154E-5	0.0045812365
6221500	1.118692	6.35564538E-5	0.0046433429
6221750	1.1304245	5.00061012E-5	0.0046918991
6222000	1.1436958	6.3637164E-5	0.0047540862
6222250	1.1553622	4.94276778E-5	0.0048020639
6222500	1.1685843	6.45339445E-5	0.0048651478
6222750	1.180363	4.9647389E-5	0.0049133452
6223000	1.1935382	5.83551272E-5	0.0049702504
6223250	1.2081945	4.96653246E-5	0.0050184657
6223500	1.2184417	6.02921729E-5	0.0050773079
6223750	1.2299749	5.33824796E-5	0.0051292403
6224000	1.243001	6.19557007E-5	0.005189746
6224250	1.2548662	5.28847664E-5	0.0052411808
6224500	1.267878	6.18615387E-5	0.0053015923
6224750	1.2798265	5.26874747E-5	0.0053528298
6225000	1.2928713	6.19108616E-5	0.0054132907
6225250	1.3048158	5.28937342E-5	0.0054647344
6225500	1.3178339	6.17494412E-5	0.0055250338
6225750	1.329765	5.27547333E-5	0.0055763386
6226000	1.3428272	6.12696636E-5	0.0056361582
6226250	1.3544504	5.64584365E-5	0.0056911667
6226500	1.3671095	5.10463665E-5	0.005740763
6226750	1.3794045	5.64674043E-5	0.0057957805
6227001	1.3921549	5.21404387E-5	0.0058464709
6227250	1.4043345	5.65346629E-5	0.0059015556
6227500	1.4170363	5.14633694E-5	0.0059515689
6227750	1.4293439	5.68440521E-5	0.006006963
6228000	1.442014	5.04858787E-5	0.0060559989
6228250	1.4542574	5.67409224E-5	0.0061112898
6228500	1.4670055	5.28757986E-5	0.0061627156
6228750	1.4792311	5.58575936E-5	0.0062171232
6229000	1.4919128	3.91236705E-5	0.0062547968
6229250	1.4924911	-4.1689622E-5	0.0062116572
6229500	1.4801951	-4.78818769E-5	0.0061623253
6229750	1.4679754	-5.33432575E-5	0.0061075321
6230000	1.4558144	-4.00619692E-5	0.0060660201
6230250	1.4430943	-5.43207459E-5	0.0060102494
6230500	1.4310381	-3.97211934E-5	0.0059690782
6230750	1.4184009	-5.65268208E-5	0.0059111014
6231000	1.4060234	-4.08645858E-5	0.0058687868
6231250	1.3934481	-5.74953415E-5	0.0058098414
6231500	1.3810889	-4.02189054E-5	0.0057681725
6231750	1.3684927	-5.68137899E-5	0.0057099087
6232000	1.3561268	-4.11874261E-5	0.0056672713
6232250	1.3435137	-5.65582081E-5	0.0056092631
6232500	1.331134	-4.14250724E-5	0.005566388
6232750	1.3184776	-5.61008511E-5	0.0055088372
6233000	1.3061683	-4.19676233E-5	0.0054654195
6233250	1.2935739	-5.58856243E-5	0.0054080839
6233500	1.2820847	-4.15730408E-5	0.0053650609
6233751	1.2690167	-5.88629286E-5	0.005304748
6234000	1.2572344	-4.20662689E-5	0.0052612317
6234250	1.2441076	-5.80423764E-5	0.0052017393
6234500	1.232267	-4.31289513E-5	0.0051571604
6234750	1.2191099	-5.96162225E-5	0.0050960941
6235000	1.2072309	-4.21783662E-5	0.0050524658
6235250	1.1941972	-5.99031916E-5	0.0049911126
6235500	1.1822452	-4.07928436E-5	0.0049488697
6235750	1.1692026	-5.88225736E-5	0.0048885972
6236000	1.1574257	-4.32320809E-5	0.0048439151
6236250	1.1443269	-5.99839016E-5	0.0047824812
6236500	1.1324048	-4.17927515E-5	0.0047392384
6236750	1.1193688	-5.93382212E-5	0.0046784502
6237000	1.1074217	-4.23173669E-5	0.0046346828
6237250	1.0943444	-5.8513185E-5	0.0045747197
6237500	1.0825447	-4.29137245E-5	0.0045303559
6237750	1.0693702	-5.81455059E-5	0.0044707604
6238000	1.0579675	-4.38956969E-5	0.0044254147
6238250	1.044471	-5.90826393E-5	0.0043648821
6238500	1.032531	-4.21290434E-5	0.004321303
6238750	1.0195561	-5.87463474E-5	0.0042611067
6239000	1.0082126	-4.4595184E-5	0.0042150615
6239250	0.9940727965	-5.81724092E-5	0.0041554391
6239500	0.9833299915	-4.46489907E-5	0.0041093401
6239751	0.9699839089	-6.14277149E-5	0.0040464624
6240000	0.958308781	-4.52408645E-5	0.0039997715
6240250	0.9450679143	-6.06968405E-5	0.0039376247
6240500	0.9334335565	-4.58955127E-5	0.0038902792
6240750	0.9201543049	-5.88225736E-5	0.0038300066
6241000	0.9087676154	-4.89042043E-5	0.0037796524
6241251	0.8956286518	-6.08448089E-5	0.0037173576
6241500	0.8838380161	-4.77204568E-5	0.0036681871
6241750	0.8706553671	-6.06206143E-5	0.0036061165
6242000	0.8589169418	-4.83437178E-5	0.0035563228
6242250	0.8457908762	-6.15981028E-5	0.0034932747
6242500	0.8339491785	-4.83706212E-5	0.0034434541
6242750	0.8208272209	-6.07506472E-5	0.0033812534
6243000	0.8090583616	-4.8917656E-5	0.0033308858
6243251	0.7959349463	-5.96834809E-5	0.0032697523
6243500	0.7843117638	-5.09623108E-5	0.00321734
6243750	0.7715977719	-5.32266763E-5	0.0031626633
6244000	0.7595014711	-5.3652646E-5	0.0031075607
6244250	0.7466394613	-5.42445198E-5	0.0030518661
6244500	0.7345616682	-5.20070576E-5	0.0029984091
6244750	0.7217278397	-5.40920674E-5	0.002942867
6245000	0.7096181991	-5.25989314E-5	0.0028888181
6245250	0.6967915705	-5.47467157E-5	0.0028326214
6245501	0.6846548529	-5.1702153E-5	0.0027794692
6245750	0.6718488965	-5.40830997E-5	0.0027239361
6246000	0.6597884626	-5.28724488E-5	0.0026696137
6246250	0.6469561801	-5.23971562E-5	0.0026157665
6246500	0.6348199043	-5.36840333E-5	0.0025606325
6246750	0.6225321209	-4.33352104E-5	0.0025158473
6247000	0.6101409327	-5.51188787E-5	0.0024592784
6247250	0.5970972023	-3.98915813E-5	0.0024179368
6247500	0.5852153088	-5.40427446E-5	0.0023624441
6247750	0.5728674525	-4.27343688E-5	0.0023182597
6248000	0.5603213115	-5.34239675E-5	0.0022633857
6248250	0.5478520726	-4.45862163E-5	0.0022173495
6248500	0.5354173757	-5.61367222E-5	0.0021597628
6248750	0.5229305125	-4.44203123E-5	0.0021138925
6249000	0.5104474921	-5.50695559E-5	0.0020573729
6249250	0.4980532119	-4.24743031E-5	0.0020134486
6249500	0.4855126364	-5.33342897E-5	0.0019586643
6249750	0.4730381412	-4.4097472E-5	0.0019131169
6250000	0.4605549	-5.55403646E-5	0.0018561265
6250250	0.4481474126	-4.41243754E-5	0.0018105521
6250500	0.4356523777	-5.55762357E-5	0.0017535259
6250750	0.4231379958	-4.31872419E-5	0.0017088886
6251000	0.4107554651	-5.48363935E-5	0.0016526022
6251250	0.398257029	-4.48776692E-5	0.0016062746
6251500	0.3857529832	-5.4361101E-5	0.0015504635
6251750	0.3733526515	-4.42678599E-5	0.0015047456
6252000	0.3608745783	-5.38006145E-5	0.001449495
6252250	0.3483666454	-4.36984056E-5	0.0014043466
6252500	0.3359781075	-5.45090694E-5	0.0013483875
6252750	0.3234412865	-4.44337639E-5	0.0013025038
6253000	0.311026025	-5.51009432E-5	0.0012459528
6253250	0.2993346862	-4.05596812E-5	0.0012039431
6253500	0.2864406965	-5.79168274E-5	0.0011445763
6253750	0.2743569402	-3.98512262E-5	0.0011032751
6254000	0.261454072	-5.69662423E-5	0.0010448588
6254250	0.2494924935	-4.11022321E-5	0.0010023066
6254500	0.2365752255	-5.8015473E-5	9.428411E-4
6254750	0.2244642598	-3.95239021E-5	9.018672E-4
6255000	0.2116078156	-5.7432567E-5	8.429847E-4
6255250	0.1995866058	-4.07659402E-5	8.007687E-4
6255500	0.1866971657	-5.76029549E-5	7.417158E-4
6255750	0.1751964702	-4.18286226E-5	6.984372E-4
6256000	0.162160779	-5.93965118E-5	6.375906391E-4
6256250	0.1505160409	-4.41243754E-5	5.920162637E-4
6256500	0.1372242006	-6.24007195E-5	5.281655442E-4
6256750	0.125532376	-2.04225219E-5	5.062930223E-4
6257000	0.112277772	-2.0458393E-5	4.843846293E-4
6257250	0.1006234046	-1.86289651E-5	4.643056642E-4
6257500	0.0868761322	-2.69376171E-5	4.359180472E-4
6257750	0.0761543962	-2.68703587E-5	4.075976885E-4
6258000	0.0629447223	-2.98835342E-5	3.762641543E-4
6258250	0.0512459896	-3.34033894E-5	3.414107649E-4
6258500	0.0380367224	-3.84298324E-5	3.015309324E-4
6258750	0.0263162623	-4.02054537E-5	2.598754787E-4
6259000	0.0130692792	-3.94342243E-5	2.189912544E-4
6259250	0.0016529374	-3.31702271E-5	1.843710274E-4
