Acquisition Time (ms)	Shunt Voltage (V)	Sample Voltage (V)	Integrated Sample Voltage (V)	
milliseconds	Volts	Volts	Volts	
4364000	0.008390066	2.7861267E-6	2.1261267E-6
4364250	0.0213367881	6.2297636E-6	7.6958903E-6
4364500	0.0333680936	3.552874E-6	1.05887643E-5
4364750	0.0457975165	7.3462553E-6	1.72750195E-5
4365000	0.0580956669	3.7585692E-5	5.42007115E-5
4365250	0.0706972562	1.121395346E-4	1.656802461E-4
4365500	0.0830739627	8.52809601E-5	2.503012062E-4
4365750	0.0957447976	5.16741128E-5	3.01315319E-4
4366000	0.1080350276	5.38891605E-5	3.545444796E-4
4366250	0.1230942105	5.76646062E-5	4.115490858E-4
4366501	0.133052313	5.47097146E-5	4.655988004E-4
4366750	0.145676593	4.98446807E-5	5.147834812E-4
4367000	0.1580342553	5.56782375E-5	5.698017187E-4
4367250	0.1707459502	5.10598182E-5	6.202015369E-4
4367500	0.1830478683	5.63732424E-5	6.759147793E-4
4367750	0.1957312053	5.20283411E-5	7.272831204E-4
4368000	0.2080785757	5.61490473E-5	7.827721676E-4
4368250	0.2199325972	4.27959864E-5	8.24908154E-4
4368500	0.2327213268	5.93505535E-5	8.835987075E-4
4368750	0.2450398533	4.37510576E-5	9.266897651E-4
4369000	0.2577552587	5.98886217E-5	9.859183868E-4
4369250	0.2700793949	4.39752527E-5	0.0010292336
4369500	0.2827593749	6.01128168E-5	0.0010886865
4369750	0.295045038	4.37914127E-5	0.0011318179
4370000	0.3077402571	6.00903973E-5	0.0011912483
4370250	0.3200389507	4.39304137E-5	0.0012345187
4370500	0.3327544444	5.95702647E-5	0.0012934289
4370750	0.3449795487	4.38586712E-5	0.0013366276
4371000	0.3577329855	5.98123954E-5	0.00139578
4371250	0.3701607475	4.51500351E-5	0.00144027
4371500	0.382435677	6.12875992E-5	0.0015008976
4371750	0.3942605013	4.59257502E-5	0.0015461634
4372000	0.4073674407	6.25251563E-5	0.0016080286
4372250	0.419374339	4.58988467E-5	0.0016532674
4372500	0.432375444	6.20722821E-5	0.0017146797
4372750	0.4442154633	4.61006223E-5	0.0017601203
4373000	0.4573784118	6.25072206E-5	0.0018219675
4373250	0.4692816401	4.57374263E-5	0.001867045
4373500	0.48241654	6.22785416E-5	0.0019286635
4373750	0.4942283779	4.53249073E-5	0.0019733284
4374000	0.5074039153	6.17763446E-5	0.0020344447
4374250	0.519281701	4.61992682E-5	0.002079984
4374500	0.5324440753	6.26417377E-5	0.0021419657
4374750	0.5443531784	4.52307453E-5	0.0021865365
4375000	0.5574132521	6.11889534E-5	0.0022470654
4375250	0.569115457	4.68539179E-5	0.0022932594
4375500	0.5819294967	6.29645787E-5	0.0023555639
4375751	0.5936713674	4.91317403E-5	0.0024040357
4376000	0.6068965533	6.41528128E-5	0.0024675285
4376250	0.6186215947	4.88044154E-5	0.0025156729
4376500	0.631982033	6.32291289E-5	0.002578242
4376750	0.6437011996	4.85308974E-5	0.0026261129
4377000	0.6569570846	6.35160986E-5	0.002688969
4377250	0.6686853505	4.85981559E-5	0.0027369072
4377500	0.6820009991	5.94312637E-5	0.0027956785
4377750	0.6935974138	5.04410397E-5	0.0028454595
4378000	0.7064785939	6.22964772E-5	0.002907096
4378250	0.7183782885	5.33107371E-5	0.0029597467
4378500	0.7315137625	6.23592519E-5	0.003021446
4378750	0.7434017959	5.25126025E-5	0.0030732986
4379000	0.756542703	6.25341241E-5	0.0031351727
4379250	0.7684103735	5.15934026E-5	0.0031861061
4379500	0.7810240524	5.19207275E-5	0.0032373668
4379750	0.7933450525	5.31089615E-5	0.0032898158
4380000	0.806355036	5.10777538E-5	0.0033402335
4380250	0.8181083028	5.53598805E-5	0.0033949334
4380500	0.8308699555	5.5288138E-5	0.0034495616
4380750	0.8430549523	5.53867839E-5	0.0035042883
4381000	0.8558912985	5.51894922E-5	0.0035588178
4381250	0.8680568158	5.54854297E-5	0.0036136433
4381500	0.880839494	5.44361966E-5	0.0036674195
4381750	0.8930981684	5.5521301E-5	0.0037222808
4382000	0.9058904317	5.39967742E-5	0.0037756175
4382250	0.918132807	5.44406805E-5	0.0038293982
4382500	0.930875731	5.3319705E-5	0.0038820579
4382750	0.9430650566	5.59652073E-5	0.0039373631
4383000	0.9559291866	5.58665614E-5	0.0039925697
4383250	0.9681151993	5.56513341E-5	0.004047561
4383500	0.9810021658	5.53823E-5	0.0041022833
4383750	0.9932179058	5.51177497E-5	0.0041567411
4384000	1.0059404	5.40416132E-5	0.0042101227
4384250	1.01792	5.8041254E-5	0.0042675039
4384500	1.0302337	4.58674594E-5	0.0043127114
4384750	1.0428637	5.79067369E-5	0.0043699581
4385000	1.0553197	4.47644195E-5	0.0044140626
4385250	1.0678602	5.85703545E-5	0.0044719729
4385500	1.0803219	4.53249073E-5	0.0045166378
4385750	1.0928884	5.88169691E-5	0.0045747948
4386000	1.1053629	4.62351394E-5	0.0046203699
4386250	1.1179586	5.77049613E-5	0.0046774149
4386500	1.1302932	4.5105196E-5	0.0047218601
4386750	1.142993	5.80905769E-5	0.0047792907
4387000	1.1546654	4.78493442E-5	0.00482648
4387250	1.1676707	6.07046919E-5	0.0048865247
4387500	1.1796167	4.40425112E-5	0.0049299072
4387750	1.1926199	6.08885319E-5	0.0049901357
4388000	1.207774	6.39734567E-5	0.0050534492
4388250	1.2176692	6.20408948E-5	0.0051148301
4388500	1.229647	4.41097697E-5	0.0051582799
4388750	1.2427026	6.17046021E-5	0.0052193245
4389000	1.254639	4.39573171E-5	0.0052626218
4389250	1.2677003	6.09513066E-5	0.0053229131
4389500	1.2797699	4.23969191E-5	0.00536465
4389750	1.2926873	6.11082431E-5	0.0054250982
4390000	1.3048283	4.34192488E-5	0.0054678575
4390250	1.317727	6.11082431E-5	0.0055283057
4390500	1.3297721	4.43788039E-5	0.0055720245
4390750	1.3427893	6.01262686E-5	0.0056314908
4391000	1.3542313	4.6118558E-5	0.0056769494
4391250	1.3677572	6.13772773E-5	0.0057376666
4391500	1.3791457	4.6759756E-5	0.0057837664
4391750	1.3923959	6.06239817E-5	0.0058437304
4392001	1.4041768	4.67866594E-5	0.005889857
4392250	1.4174818	6.20408948E-5	0.0059512379
4392500	1.4292557	4.61320097E-5	0.0059967099
4392750	1.4425687	6.34622918E-5	0.0060595122
4393000	1.4540756	4.960255E-5	0.0061084548
4393250	1.4670737	6.45922352E-5	0.006172387
4393500	1.4788636	5.11315607E-5	0.0062228586
4393750	1.4921191	6.44666859E-5	0.0062866653
4394250	1.4885886	-5.94592863E-5	0.006226546
4394501	1.4767929	-4.84737507E-5	0.0061774122
4394750	1.4636706	-6.11048746E-5	0.0061156474
4395000	1.4517809	-4.85410091E-5	0.0060664463
4395250	1.4386332	-6.17012323E-5	0.0060040851
4395500	1.4268015	-4.8626203E-5	0.0059547989
4395750	1.4135285	-6.1046584E-5	0.0058930923
4396000	1.4017712	-4.87607198E-5	0.0058436716
4396250	1.3885673	-6.17909101E-5	0.0057812207
4396500	1.376724	-4.84064923E-5	0.0057321542
4396750	1.3635424	-6.19747497E-5	0.0056695195
4397000	1.351704	-4.93391419E-5	0.0056195203
4397250	1.3390022	-5.79123435E-5	0.005560948
4397500	1.3269121	-5.18321858E-5	0.0055084558
4397750	1.3140147	-5.53385894E-5	0.0054524572
4398000	1.3019081	-5.25585764E-5	0.0053992386
4398250	1.2889697	-5.58676887E-5	0.0053427109
4398500	1.2768921	-5.18052825E-5	0.0052902457
4398750	1.2639332	-6.00332244E-5	0.0052295524
4399000	1.2518048	-5.08053746E-5	0.0051780871
4399250	1.2388656	-5.77105683E-5	0.0051197165
4399500	1.226832	-5.15900557E-5	0.0050674664
4399750	1.2139057	-5.6230884E-5	0.0050105755
4400000	1.2017977	-5.14196678E-5	0.0049584959
4400250	1.1888727	-5.61770773E-5	0.0049016588
4400500	1.1767728	-5.07112128E-5	0.0048502876
4400750	1.1638826	-5.57824948E-5	0.0047938451
4401000	1.1517813	-5.14420872E-5	0.004741743
4401250	1.1388354	-4.15102663E-5	0.0046995727
4401500	1.1270353	-5.54013639E-5	0.0046435114
4401750	1.114472	-4.54829947E-5	0.0045973684
4402000	1.1020433	-5.5939431E-5	0.0045407689
4402250	1.0893553	-4.67788395E-5	0.0044933301
4402500	1.0770126	-5.49753942E-5	0.0044376947
4402750	1.0644463	-4.58237705E-5	0.0043912109
4403000	1.0519757	-5.57376558E-5	0.0043348133
4403250	1.0393697	-4.56623504E-5	0.0042884909
4403500	1.0269164	-5.54910418E-5	0.0042323399
4403750	1.0143586	-4.55412853E-5	0.0041861386
4404000	1.0019174	-5.48857163E-5	0.0041305929
4404250	0.9879267625	-5.65806275E-5	0.0040733523
4404500	0.9768893794	-5.5773527E-5	0.0040169187
4404750	0.9643350225	-4.6630871E-5	0.0039696279
4405000	0.9518915354	-5.5150266E-5	0.0039138176
4405250	0.9392365564	-4.64739348E-5	0.0038666837
4405500	0.9268284064	-5.45045855E-5	0.0038115191
4405750	0.914232926	-4.51153155E-5	0.0037657438
4406000	0.9017942537	-5.41593258E-5	0.0037109244
4406250	0.8892518672	-4.65322254E-5	0.0036637322
4406500	0.8767930086	-5.44149077E-5	0.0036086573
4406750	0.8641337891	-4.74155522E-5	0.0035605818
4407000	0.851821579	-5.56390102E-5	0.0035042827
4407250	0.8391454861	-3.83267029E-5	0.003465296
4407500	0.8268467042	-5.57017847E-5	0.0034089343
4407750	0.8149768252	-3.93131592E-5	0.0033689611
4408000	0.8020539032	-5.69169195E-5	0.0033113842
4408250	0.7899151979	-4.02951315E-5	0.003270429
4408500	0.7771893682	-5.69079517E-5	0.0032128611
4408750	0.7649493782	-4.03892933E-5	0.0031718118
4409000	0.7521898899	-5.86028629E-5	0.0031125489
4409250	0.7399727806	-4.02951315E-5	0.0030715938
4409500	0.7271741566	-5.72980503E-5	0.0030136358
4409750	0.7149598743	-4.01830342E-5	0.0029727927
4410001	0.7021662858	-5.69796939E-5	0.002915153
4410251	0.6898801368	-4.10170382E-5	0.002873476
4410500	0.6771271859	-5.69438228E-5	0.0028158722
4410750	0.6649153772	-4.04117127E-5	0.0027748005
4411000	0.6521217887	-5.65716598E-5	0.0027175688
4411250	0.6399382496	-4.03130671E-5	0.0026765957
4411500	0.6271503592	-5.75715677E-5	0.0026183642
4411750	0.6156519606	-4.10125543E-5	0.0025766916
4412000	0.6024793826	-6.00601278E-5	0.0025159715
4412250	0.5905160372	-4.36356311E-5	0.0024716758
4412500	0.5775093666	-6.00421922E-5	0.0024109737
4412751	0.5656925815	-4.32814037E-5	0.0023670323
4413000	0.5524692066	-6.12438753E-5	0.0023051284
4413251	0.5406458841	-4.18913971E-5	0.002262577
4413500	0.5275072739	-6.05847432E-5	0.0022013322
4413750	0.5161641372	-4.57116732E-5	0.0021549606
4414000	0.5029904992	-6.32885301E-5	0.002091012
4414250	0.4911860379	-4.7877393E-5	0.0020424746
4414500	0.4779428743	-6.14142632E-5	0.0019804004
4414750	0.4662006061	-4.64784187E-5	0.001933262
4415000	0.4529186601	-6.19792336E-5	0.0018706227
4415250	0.4412190613	-4.68012589E-5	0.0018231615
4415500	0.427896787	-6.154878E-5	0.0017609527
4415750	0.4162118973	-4.6550161E-5	0.0017137425
4416000	0.4029517277	-6.09838096E-5	0.0016520987
4416250	0.3912005811	-4.71913576E-5	0.0016042474
4416500	0.3779609512	-5.66478859E-5	0.0015469395
4416750	0.3665113176	-4.90073338E-5	0.0014972721
4417000	0.3535307522	-5.98045459E-5	0.0014368076
4417251	0.3415451003	-5.07739873E-5	0.0013853736
4417500	0.3285026509	-6.04502264E-5	0.0013242634
4417750	0.3165057354	-4.93974325E-5	0.0012742059
4418000	0.3034807337	-5.89615742E-5	0.0012145844
4418250	0.2915023701	-4.94377875E-5	0.0011644866
4418500	0.2784268364	-6.04412586E-5	0.0011033853
4418750	0.2665153923	-5.10340531E-5	0.0010516913
4419000	0.2534429064	-6.01722251E-5	9.90859E-4
4419250	0.2415008074	-5.01955652E-5	9.400035E-4
4419500	0.2284125524	-5.91768011E-5	8.801667E-4
4419750	0.2167019992	-5.2074316E-5	8.274323651E-4
4420000	0.2040667647	-4.92629157E-5	7.775094494E-4
4420251	0.1917718698	-5.16214429E-5	7.252280065E-4
4420501	0.1790209066	-4.96619821E-5	6.749060244E-4
4420750	0.1667635131	-5.33342897E-5	6.209117347E-4
4421000	0.1540554844	-5.08591813E-5	5.693925535E-4
4421250	0.141756084	-5.35046776E-5	5.152278759E-4
4421500	0.1290842757	-4.87383003E-5	4.658295756E-4
4421750	0.1167786031	-5.2737932E-5	4.124316435E-4
4422000	0.1039925679	-5.25137374E-5	3.592579061E-4
4422250	0.0910861721	-4.90521728E-5	3.095457333E-4
4422500	0.0790086895	-5.17335402E-5	2.571521931E-4
4422750	0.0670183092	-5.55672679E-5	2.009249252E-4
4423000	0.0546629056	-2.5529675E-5	1.747352502E-4
4423250	0.04184013	-1.62794056E-5	1.577958446E-4
4423500	0.0297770177	-1.38446522E-5	1.432911924E-4
4423750	0.0171463034	-2.01131333E-5	1.22518059E-4
4424000	0.0049960933	-1.91042576E-5	1.027538014E-4
