Acquisition Time (ms)	Shunt Voltage (V)	Sample Voltage (V)	Integrated Sample Voltage (V)	
milliseconds	Volts	Volts	Volts	
9641750	0.0122823727	3.7994886E-6	3.0994886E-6
9642000	0.0234641994	3.1941618E-6	5.5936504E-6
9642250	0.0365876024	4.7321403E-6	9.6257907E-6
9642500	0.048055646	2.1538965E-6	1.10796871E-5
9642750	0.0608162159	6.3104739E-6	1.6690161E-5
9643000	0.072767374	3.7187784E-6	1.97089393E-5
9643250	0.0856855434	5.57063E-6	2.45795693E-5
9643500	0.0976041124	2.0731862E-6	2.59527556E-5
9643750	0.1105204044	6.5077656E-6	3.17605211E-5
9644000	0.1254969948	4.2075237E-6	3.52680448E-5
9644250	0.1353497488	7.0099626E-6	4.15780074E-5
9644500	0.1472258559	2.9385794E-6	4.38165868E-5
9644750	0.1601153402	5.9203744E-6	4.90369611E-5
9645000	0.1720528454	2.3422204E-6	5.06791815E-5
9645250	0.1850270944	5.8486319E-6	5.58278134E-5
9645500	0.1968311582	4.0147159E-6	5.91425293E-5
9645750	0.2098032427	6.2028602E-6	6.46453895E-5
9646000	0.2216461772	3.9384896E-6	6.78838791E-5
9646250	0.2339707994	5.341951E-6	7.25258301E-5
9646500	0.2464601804	3.6963588E-6	7.55221889E-5
9646750	0.2587282633	5.5571783E-6	8.03793672E-5
9647000	0.2710067706	4.3106535E-6	8.39900206E-5
9647250	0.2836494259	4.9563354E-6	8.8246356E-5
9647500	0.2958765179	3.1538067E-6	9.07001627E-5
9647750	0.3084259276	5.7230827E-6	9.57232453E-5
9648000	0.3206632674	4.5931393E-6	9.96163846E-5
9648250	0.3333241654	5.8979548E-6	1.048143395E-4
9648500	0.3454956457	4.46759E-6	1.085819295E-4
9648750	0.3580825569	6.5884758E-6	1.144704053E-4
9649001	0.3703085004	5.9786651E-6	1.197490704E-4
9649250	0.3821900406	8.2251001E-6	1.272741705E-4
9649500	0.3948144531	7.588386E-6	1.341625565E-4
9649750	0.4070372605	6.7409285E-6	1.40203485E-4
9650000	0.4195454585	2.10938995E-5	1.605973845E-4
9650250	0.4317764375	5.81847389E-5	2.180821234E-4
9650501	0.4443755841	3.109871472E-4	5.283692706E-4
9650750	0.4564457798	3.029295749E-4	8.305988455E-4
9651000	0.4691638795	3.101217541E-4	0.0011400206
9651250	0.481395742	2.716095178E-4	0.0014109301
9651500	0.4939642779	2.597809837E-4	0.0016700111
9651750	0.5062310357	2.119198111E-4	0.0018812309
9652000	0.5188299173	1.686232511E-4	0.0020491542
9652250	0.5302840121	6.78206448E-5	0.0021162748
9652500	0.5432332601	6.39061981E-5	0.002179481
9652750	0.5549874104	4.53249073E-5	0.0022241059
9653000	0.5681246955	6.18705065E-5	0.0022852764
9653250	0.5798907278	4.56387804E-5	0.0023302152
9653500	0.5928833962	6.27807387E-5	0.0023922959
9653751	0.604637679	4.63158496E-5	0.0024379118
9654000	0.617779072	6.17270217E-5	0.0024989388
9654250	0.6294960742	4.45850634E-5	0.0025428239
9654501	0.6421366976	6.29780304E-5	0.0026051019
9654750	0.6536898686	4.77551823E-5	0.0026521571
9655000	0.6669071037	6.35788733E-5	0.002715036
9655250	0.6785247647	4.85174456E-5	0.0027628534
9655501	0.691809626	6.24848011E-5	0.0028246382
9655750	0.7033384145	4.88447705E-5	0.002872783
9656000	0.7165998208	6.41259094E-5	0.0029362089
9656250	0.7281498557	4.88447705E-5	0.0029843537
9656500	0.7413760134	6.29062879E-5	0.0030465599
9656750	0.7529397413	4.90779334E-5	0.0030949379
9657000	0.765732623	6.13369222E-5	0.0031555748
9657250	0.777486685	5.1207787E-5	0.0032060826
9657500	0.7905320938	6.22650899E-5	0.0032676477
9657750	0.8022700774	5.21045674E-5	0.0033190522
9658000	0.8152800167	6.30004499E-5	0.0033813527
9658250	0.8270817395	5.0934269E-5	0.003431587
9658500	0.8400442389	6.27314158E-5	0.0034936184
9658750	0.851912086	5.21538904E-5	0.0035450723
9659000	0.8649321405	6.28390294E-5	0.0036072113
9659250	0.8767169015	5.18355333E-5	0.0036583468
9659500	0.8897474688	6.28614489E-5	0.0037205083
9659750	0.9015290494	5.14588855E-5	0.0037712672
9660000	0.9140018661	5.24408601E-5	0.003823008
9660250	0.9260588104	5.48083605E-5	0.0038771164
9660500	0.9387439143	5.16247899E-5	0.0039280412
9660750	0.9509470655	5.57275605E-5	0.0039830687
9661000	0.9636342012	5.23197948E-5	0.0040346885
9661265	0.9761747767	5.00240368E-5	0.0040840126
9661500	0.9885223679	5.61176599E-5	0.0041394302
9661750	1.0005884	5.60817887E-5	0.004194812
9662000	1.0132861	5.32300269E-5	0.004247342
9662250	1.0254132	5.61221439E-5	0.0043027642
9662500	1.0381722	5.38846766E-5	0.0043559489
9662750	1.0502684	5.51894922E-5	0.0044104384
9663000	1.063013	4.2262402E-5	0.0044520008
9663251	1.0748377	5.82295779E-5	0.0045095303
9663500	1.0873076	4.40021561E-5	0.0045528325
9663750	1.0996252	5.7126538E-5	0.004609259
9664000	1.1119505	4.36793151E-5	0.0046522383
9664250	1.1244445	5.8225094E-5	0.0047097634
9664500	1.136792	4.5199358E-5	0.0047542628
9664751	1.1492799	5.7718413E-5	0.0048112812
9665000	1.161561	4.47554517E-5	0.0048553367
9665250	1.1740944	5.71041184E-5	0.0049117408
9665500	1.1863839	4.40156078E-5	0.0049550564
9665750	1.1986465	5.98437827E-5	0.0050142002
9666000	1.2135382	6.24130587E-5	0.0050759132
9666250	1.223432	6.04580773E-5	0.0051356713
9666500	1.2353261	4.36344761E-5	0.0051786058
9666750	1.2482128	6.13414061E-5	0.0052392472
9667000	1.2600824	4.33833776E-5	0.0052819306
9667250	1.2730769	6.19557007E-5	0.0053431863
9667501	1.2849643	4.33385386E-5	0.0053858248
9667750	1.2979428	6.08974997E-5	0.0054460223
9668000	1.3098472	4.34371844E-5	0.0054887595
9668250	1.322769	6.1390729E-5	0.0055494502
9668500	1.3347598	4.30381171E-5	0.0055917883
9668750	1.3476108	6.10051134E-5	0.0056520935
9669000	1.3595152	4.30605366E-5	0.005694454
9669251	1.3724629	6.01621398E-5	0.0057539161
9669500	1.3844042	4.34192488E-5	0.0057966354
9669750	1.3973426	5.9556813E-5	0.0058554922
9670000	1.4091414	4.5611877E-5	0.0059004041
9670250	1.4217523	6.13145026E-5	0.0059610186
9670500	1.4333484	4.72126301E-5	0.0060075312
9670750	1.4465473	6.21305729E-5	0.0060689618
9671000	1.4582187	4.80735393E-5	0.0061163353
9671250	1.4714466	6.27089962E-5	0.0061783443
9671500	1.4830583	4.80825071E-5	0.0062257268
9671750	1.4863081	-4.51467028E-5	0.0061798801
9672000	1.4753077	-4.14026529E-5	0.0061377775
9672250	1.4620953	-6.07102921E-5	0.0060763672
9672500	1.4504694	-4.4846282E-5	0.0060308209
9672750	1.4372575	-6.04278069E-5	0.0059696931
9673000	1.425829	-4.675642E-5	0.0059222367
9673250	1.4128857	-6.10241646E-5	0.0058605125
9673500	1.4011457	-4.68909368E-5	0.0058129216
9673750	1.3881285	-5.91588655E-5	0.0057530627
9674000	1.3763137	-4.75635206E-5	0.0057047992
9674250	1.3632747	-5.95444802E-5	0.0056445547
9674500	1.351491	-4.76531984E-5	0.0055962015
9674750	1.3383848	-6.06789049E-5	0.0055348226
9675000	1.3266711	-4.81957494E-5	0.0054859268
9675251	1.313534	-6.14456504E-5	0.0054237812
9675500	1.3018061	-4.95274653E-5	0.0053735537
9675750	1.2887145	-6.09613901E-5	0.0053118923
9676000	1.2771585	-4.90611405E-5	0.0052621312
9676250	1.2643092	-5.33029024E-5	0.0052081283
9676500	1.2523612	-5.08995363E-5	0.0051565288
9676750	1.2395146	-5.62533034E-5	0.0050995754
9677000	1.2275225	-5.09981819E-5	0.0050478773
9677250	1.2147285	-5.45897795E-5	0.0049925875
9677500	1.2027417	-5.06798256E-5	0.0049412077
9677750	1.1898965	-5.73742764E-5	0.0048831334
9678000	1.1779088	-5.05991155E-5	0.0048318343
9678250	1.1651536	-5.42848748E-5	0.0047768494
9678500	1.1530826	-5.00879518E-5	0.0047260614
9678750	1.1409564	-4.29540795E-5	0.0046824074
9679000	1.1285615	-5.38095822E-5	0.0046278978
9679250	1.1160535	-4.48148948E-5	0.0045823829
9679500	1.1036961	-5.49709103E-5	0.004526712
9679750	1.0911903	-4.53978007E-5	0.0044806142
9680000	1.078901	-5.4692909E-5	0.0044252213
9680250	1.0664042	-4.45413773E-5	0.0043799799
9680500	1.0539862	-5.43924882E-5	0.0043248874
9680750	1.0415214	-4.58372221E-5	0.0042783502
9681000	1.0291559	-5.50381687E-5	0.004222612
9681250	1.0166381	-4.61107396E-5	0.0041758013
9681500	1.0043146	-5.35450326E-5	0.0041215562
9681750	0.9903900173	-5.74863737E-5	0.0040633699
9682000	0.9795222076	-5.52802988E-5	0.0040073896
9682250	0.967782413	-3.91920941E-5	0.0039674975
9682500	0.9547324987	-5.58587209E-5	0.0039109388
9682750	0.9429419071	-4.01695826E-5	0.0038700692
9683000	0.9301626301	-5.70559201E-5	0.0038123132
9683250	0.9181657588	-4.02413248E-5	0.0037713719
9683500	0.9053140851	-5.75536321E-5	0.0037131183
9683750	0.8931911931	-3.9900549E-5	0.0036725177
9684000	0.8805111248	-5.71680174E-5	0.0036146497
9684250	0.8684803299	-4.01875181E-5	0.0035737622
9684501	0.8556696471	-5.73653087E-5	0.0035156969
9684750	0.8435414104	-4.05148423E-5	0.0034744821
9685000	0.8308635948	-5.77060845E-5	0.003416076
9685250	0.8188694179	-4.02547765E-5	0.0033751212
9685500	0.8061028622	-5.73249536E-5	0.0033170962
9685750	0.7940626147	-4.01606148E-5	0.0032762356
9686000	0.781573057	-5.73697926E-5	0.0032181658
9686250	0.7699300417	-4.2976499E-5	0.0031744893
9686500	0.7568904634	-5.95086091E-5	0.0031142807
9686750	0.7451812795	-4.3931568E-5	0.0030696492
9687000	0.7320316706	-5.94548024E-5	0.0030094944
9687250	0.7204184709	-4.32365647E-5	0.0029655578
9687500	0.707225795	-5.97686748E-5	0.0029050891
9687751	0.6955282281	-4.28957889E-5	0.0028614933
9688000	0.682404592	-5.91095427E-5	0.0028016838
9688250	0.6706857345	-4.21738823E-5	0.0027588099
9688500	0.6576026476	-5.74191154E-5	0.0027006908
9688750	0.6463976787	-4.70747764E-5	0.002652916
9689000	0.6332142346	-6.13694243E-5	0.0025908466
9689250	0.6212289803	-4.52677679E-5	0.0025448788
9689500	0.6083122423	-6.04322908E-5	0.0024837465
9689750	0.5967647694	-4.6841614E-5	0.0024362049
9690000	0.5835201923	-6.06385499E-5	0.0023748664
9690251	0.5719362781	-4.63304503E-5	0.0023278359
9690500	0.5587489028	-6.14142632E-5	0.0022657216
9690750	0.5471265154	-4.75276495E-5	0.002217494
9691000	0.5339172753	-5.36930011E-5	0.002163101
9691250	0.5223412236	-4.82988789E-5	0.0021141021
9691500	0.5096986567	-5.78450851E-5	0.002055557
9691750	0.4977432621	-5.07291484E-5	0.0020041279
9692000	0.484776434	-5.97866104E-5	0.0019436413
9692250	0.4729455582	-5.00834679E-5	0.0018928578
9692500	0.4600020525	-5.7517761E-5	0.00183464
9692750	0.4480824366	-1.657185605E-4	0.0016682215
9693000	0.4351862825	-5.05632444E-5	0.0016169582
9693250	0.4233039914	-2.94979194E-5	0.0015867603
9693500	0.4103695849	-3.06637314E-5	0.0015553966
9693750	0.3984727173	-3.0470924E-5	0.0015242257
9694000	0.385570865	-3.7784152E-5	0.0014857415
9694251	0.3736806231	-3.49368805E-5	0.0014501046
9694500	0.3608000614	-4.42275049E-5	0.0014051771
9694750	0.3488833609	-4.36087278E-5	0.0013608684
9695000	0.3359185204	-5.09802464E-5	0.0013091882
9695250	0.3240674584	-5.01507263E-5	0.0012583374
9695500	0.3111487769	-5.84235072E-5	0.0011992139
9695750	0.2992758943	-5.84145394E-5	0.0011400994
9696000	0.2862832701	-6.31360778E-5	0.0010762633
9696250	0.2744286302	-5.86073468E-5	0.001016956
9696500	0.2620203035	-6.01273862E-5	9.561286E-4
9696750	0.24992281	-5.99659661E-5	8.954626E-4
9697000	0.237268096	-5.86925407E-5	8.360700655E-4
9697250	0.2250763851	-6.27549469E-5	7.726151185E-4
9697500	0.2125117805	-6.12618109E-5	7.106533077E-4
9697750	0.2002558447	-5.45135533E-5	6.554397544E-4
9698000	0.1876419891	-5.44552627E-5	6.002844917E-4
9698250	0.1754948029	-5.08816007E-5	5.487028909E-4
9698500	0.1628233921	-5.03928565E-5	4.976100345E-4
9698750	0.1506341549	-4.51691222E-5	4.517409122E-4
9699000	0.1380756901	-4.38822452E-5	4.07158667E-4
9699250	0.1261557209	-3.81249278E-5	3.683337392E-4
9699500	0.1139303074	-3.87750921E-5	3.288586471E-4
9699750	0.101304393	-3.49906872E-5	2.931679599E-4
9700000	0.0876399926	-3.21209963E-5	2.603469636E-4
9700250	0.0765114768	-2.92468215E-5	2.304001421E-4
9700500	0.0642833095	-2.47943167E-5	2.049058254E-4
9700750	0.0516901457	-2.1704915E-5	1.825009104E-4
9701000	0.0394526947	-2.09247178E-5	1.608761926E-4
9701250	0.0269168333	-1.96378408E-5	1.405383518E-4
9701500	0.0147203655	-1.73914109E-5	1.224469409E-4
9701750	0.0025125759	-1.31406812E-5	1.086062598E-4
