Acquisition Time (ms)	Shunt Voltage (V)	Sample Voltage (V)	Integrated Sample Voltage (V)	
milliseconds	Volts	Volts	Volts	
10859500	0.0082344824	1.6292799E-6	3.292799E-7
10859750	0.020957627	4.7814632E-6	3.8107431E-6
10860000	0.032940802	3.2076135E-6	5.7183566E-6
10860250	0.0456740393	5.1894983E-6	9.6078549E-6
10860500	0.057730952	2.3287687E-6	1.06366236E-5
10860750	0.0698095744	5.3150476E-6	1.46516711E-5
10861001	0.0822498097	3.7501657E-6	1.71018368E-5
10861250	0.0945532076	4.0326515E-6	1.98344883E-5
10861500	0.1070197027	2.7412877E-6	2.1275776E-5
10861750	0.1193035141	3.4318086E-6	2.34075846E-5
10862000	0.1343749773	2.3377365E-6	2.4445321E-5
10862250	0.1441185841	3.0417091E-6	2.61870302E-5
10862500	0.1565116718	2.9251277E-6	2.78121578E-5
10862750	0.1688332903	3.3421306E-6	2.98542884E-5
10863000	0.1812845956	2.6650613E-6	3.12193497E-5
10863250	0.193707543	3.6649715E-6	3.35843212E-5
10863501	0.2060995263	3.0372252E-6	3.53215465E-5
10863750	0.218455996	3.8981344E-6	3.79196809E-5
10864000	0.2308354788	3.7546496E-6	4.03743305E-5
10864250	0.2432946467	2.8713208E-6	4.19456513E-5
10864500	0.2556072101	3.8308759E-6	4.44765272E-5
10864750	0.2680149625	4.696269E-6	4.78727963E-5
10865000	0.2801538003	3.7950047E-6	5.0367801E-5
10865250	0.2926303716	1.9745404E-6	5.10423414E-5
10865500	0.3048338762	4.4855256E-6	5.4227867E-5
10865750	0.3167887407	1.9252175E-6	5.48530845E-5
10866000	0.3295643073	4.8397539E-6	5.83928384E-5
10866250	0.3415736791	2.911676E-6	6.00045143E-5
10866500	0.3543645732	3.5663257E-6	6.227084E-5
10866750	0.3664112697	1.9790243E-6	6.29498643E-5
10867000	0.3791328148	3.9071023E-6	6.55569665E-5
10867250	0.391125755	1.7099902E-6	6.59669567E-5
10867500	0.4039546363	4.5886554E-6	6.92556121E-5
10867750	0.4158064051	3.0506769E-6	7.1006289E-5
10868000	0.4282782059	5.8351802E-6	7.55414692E-5
10868251	0.4399445437	3.0641286E-6	7.73055979E-5
10868500	0.4530875268	5.4226612E-6	8.14282591E-5
10868750	0.4646820863	3.5887452E-6	8.37170043E-5
10869000	0.4778385859	7.314868E-6	8.97318722E-5
10869250	0.4894721486	5.0953363E-6	9.35272086E-5
10869500	0.5025559865	9.7630786E-6	1.019902871E-4
10869750	0.5141950706	8.6331352E-6	1.093234223E-4
10870000	0.5273832852	2.99540904E-5	1.379775127E-4
10870250	0.5386055251	7.35152006E-5	2.101927134E-4
10870500	0.5516505364	3.123323179E-4	5.212250313E-4
10870750	0.563291299	3.567453696E-4	8.766704009E-4
10871000	0.5763544205	3.487191846E-4	0.0012240896
10871251	0.5878838274	3.151437246E-4	0.0015379333
10871500	0.6006616909	2.951231011E-4	0.0018317564
10871750	0.6125967667	2.608077973E-4	0.0020912642
10872000	0.6253903993	2.317207234E-4	0.0023216849
10872250	0.6373859014	1.592339598E-4	0.0024796189
10872501	0.6502777267	8.06490891E-5	0.002558968
10872750	0.6621934555	5.54047195E-5	0.0026130727
10873000	0.675019289	5.96958139E-5	0.0026714685
10873250	0.686966291	5.39967742E-5	0.0027241653
10873500	0.6998006937	5.94133281E-5	0.0027822786
10873750	0.7117672636	5.31044776E-5	0.0028340831
10874000	0.724602108	6.23458002E-5	0.0028951289
10874251	0.7365285262	5.42299371E-5	0.0029480588
10874500	0.7492406187	4.70512096E-5	0.00299381
10874750	0.7610302385	5.593382E-5	0.0030484439
10875000	0.7734469578	4.88178671E-5	0.0030959617
10875250	0.7857777639	5.65705341E-5	0.0031512323
10875500	0.7981798183	4.80600876E-5	0.0031979923
10875750	0.8105688421	5.58262063E-5	0.0032525186
10876000	0.8230090163	4.94456134E-5	0.0033006642
10876250	0.83529225	5.71534414E-5	0.0033565176
10876500	0.8477863573	4.92079666E-5	0.0034044256
10876750	0.8600479029	5.6942698E-5	0.0034600683
10877000	0.8725019469	4.93379998E-5	0.0035081063
10877250	0.8848569588	5.67229868E-5	0.0035635293
10877500	0.897346384	4.89523842E-5	0.0036111816
10877750	0.9096400421	5.60324658E-5	0.0036659141
10878000	0.9221135656	4.83067022E-5	0.0037129208
10878250	0.93440369	5.64763721E-5	0.0037680972
10878500	0.9462782953	4.25628235E-5	0.00380936
10878750	0.95885995	6.10723719E-5	0.0038691324
10879000	0.9709846972	4.18140118E-5	0.0039096464
10879250	0.983671347	6.00007193E-5	0.0039683471
10879500	0.9957330177	4.33609581E-5	0.0040104081
10879750	1.0084593	6.00724617E-5	0.0040691805
10880000	1.0205882	4.21323689E-5	0.0041100129
10880251	1.0332649	6.01173007E-5	0.0041688302
10880500	1.0454392	4.1944045E-5	0.0042094742
10880750	1.0580069	5.98392988E-5	0.0042680135
10881000	1.0701377	4.33833776E-5	0.0043100969
10881250	1.0828225	5.88707759E-5	0.0043676677
10881501	1.0949929	4.30560527E-5	0.0044094238
10881750	1.1076513	5.93640052E-5	0.0044674878
10882000	1.1189915	4.54549404E-5	0.0045116427
10882250	1.1320335	6.19377651E-5	0.0045722805
10882500	1.1436878	4.60468155E-5	0.0046170273
10882750	1.1568258	6.22381865E-5	0.0046779655
10883000	1.1685521	4.51724546E-5	0.0047218379
10883250	1.181633	6.20857338E-5	0.0047826237
10883500	1.193347	4.48182263E-5	0.0048261419
10883750	1.2083879	4.96518729E-5	0.0048744938
10884000	1.2180799	4.54549404E-5	0.0049186487
10884250	1.2312464	6.24803172E-5	0.004979829
10884501	1.2429124	4.58764272E-5	0.0050244054
10884750	1.2560352	6.16463114E-5	0.0050847517
10885000	1.2676852	4.62261716E-5	0.0051296779
10885250	1.2804956	6.20139914E-5	0.0051903919
10885500	1.2919714	4.83739608E-5	0.0052374659
10885750	1.3051775	6.4233523E-5	0.0053003994
10886001	1.3167696	4.86429949E-5	0.0053477424
10886250	1.3300251	6.30811601E-5	0.0054095236
10886500	1.3415517	4.89030612E-5	0.0054571266
10886750	1.3547926	6.34398723E-5	0.0055192665
10887000	1.3663878	4.85264135E-5	0.0055664929
10887250	1.3796161	6.36640674E-5	0.005628857
10887500	1.3912015	4.98715841E-5	0.0056774285
10887750	1.4038922	6.19691524E-5	0.0057380977
10888000	1.4157466	5.26516035E-5	0.0057894493
10888250	1.4287696	6.2538608E-5	0.0058506879
10888500	1.4405346	5.15709831E-5	0.0059009589
10888750	1.4535112	6.13996968E-5	0.0059610586
10889000	1.4653563	5.14185304E-5	0.0060111771
10889250	1.4782715	6.17270217E-5	0.0060716041
10889750	1.475313	-5.59977216E-5	0.0060143064
10890000	1.4635093	-4.86486225E-5	0.0059643578
10890250	1.4505536	-5.96745131E-5	0.0059033833
10890500	1.4387098	-4.88817849E-5	0.0058532015
10890750	1.4258232	-5.97238359E-5	0.0057921777
10891000	1.4139299	-5.0078984E-5	0.0057407987
10891250	1.4009952	-4.67519361E-5	0.0056927467
10891500	1.3894133	-5.29621266E-5	0.0056384846
10891750	1.3767173	-5.19846382E-5	0.0055852
10892000	1.3646245	-5.25944475E-5	0.0055313055
10892250	1.3519468	-4.92808513E-5	0.0054807247
10892500	1.3397644	-5.32042568E-5	0.0054262204
10892750	1.3271241	-4.9706821E-5	0.0053752136
10893001	1.3149444	-5.4110003E-5	0.0053198036
10893250	1.3023264	-4.77204568E-5	0.0052707831
10893500	1.2901797	-5.32087407E-5	0.0052162744
10893750	1.2781947	-4.09363281E-5	0.0051740381
10894000	1.2656925	-5.56210746E-5	0.005117117
10894250	1.2533765	-4.11650066E-5	0.005074652
10894500	1.2408507	-5.51547499E-5	0.0050181972
10894750	1.2286563	-4.02816799E-5	0.0049766156
10895000	1.2161019	-5.51368143E-5	0.0049201788
10895250	1.2038296	-4.13757495E-5	0.004877503
10895500	1.1912806	-5.70514362E-5	0.0048191516
10895750	1.1789838	-4.23577219E-5	0.0047754938
10896000	1.1664945	-5.61546578E-5	0.0047180392
10896250	1.1543193	-4.1649267E-5	0.0046750899
10896500	1.141728	-5.59573665E-5	0.0046178326
10896750	1.1294155	-4.18689777E-5	0.0045746636
10897000	1.116887	-5.54686223E-5	0.004517895
10897250	1.1046093	-4.21021401E-5	0.0044744928
10897500	1.0920955	-5.49933298E-5	0.0044181995
10897750	1.080544	-4.34562755E-5	0.0043734432
10898000	1.06764	-5.67465316E-5	0.0043153967
10898250	1.0550286	-4.15147502E-5	0.0042725819
10898500	1.042873	-5.77823106E-5	0.0042134996
10898750	1.0309192	-4.04924228E-5	0.0041717072
10899000	1.0181136	-5.80827314E-5	0.0041123245
10899250	1.006297	-4.24518836E-5	0.0040685726
10899500	0.9925168637	-5.61098189E-5	0.0040111628
10899750	0.9813784167	-4.14071368E-5	0.0039684556
10900000	0.9684817325	-5.82172482E-5	0.0039089384
10900250	0.9566995776	-4.02413248E-5	0.003867397
10900500	0.9437068209	-5.81544737E-5	0.0038079426
10900750	0.9318092907	-4.09946187E-5	0.003765648
10901000	0.9189195856	-5.83786683E-5	0.0037059693
10901250	0.9070437435	-4.09721993E-5	0.0036636971
10901500	0.8941074376	-5.87508313E-5	0.0036036463
10901751	0.8821377316	-4.05596812E-5	0.0035617866
10902000	0.8693296991	-5.84459266E-5	0.0035020406
10902250	0.8574335824	-4.09991026E-5	0.0034597415
10902500	0.8445733395	-5.88270575E-5	0.0033996145
10902750	0.8327427729	-4.08466503E-5	0.0033574678
10903000	0.8197956452	-5.7517761E-5	0.0032986501
10903250	0.8079173736	-4.20034944E-5	0.0032553466
10903500	0.7950446744	-5.83517649E-5	0.0031956948
10903750	0.7831808911	-4.0860102E-5	0.0031535347
10904000	0.7702255474	-5.79482146E-5	0.0030942865
10904250	0.7584409632	-4.1895881E-5	0.0030510906
10904500	0.7454672884	-5.7975118E-5	0.0029918155
10904750	0.7336018708	-4.08780375E-5	0.0029496375
10905000	0.7206934812	-5.7598471E-5	0.002890739
10905250	0.7088649023	-4.13936851E-5	0.0028480453
10905500	0.6959261671	-5.83248616E-5	0.0027884204
10905750	0.6840188308	-4.07300691E-5	0.0027463904
10906000	0.6710856612	-5.69393389E-5	0.002688151
10906250	0.6592477622	-4.13712656E-5	0.0026454798
10906500	0.6463259887	-5.75267288E-5	0.002586653
10906750	0.6345226758	-4.02592604E-5	0.0025450938
10907000	0.6215257228	-5.74684382E-5	0.0024863253
10907250	0.6098338982	-4.21290434E-5	0.0024428963
10907500	0.5968503291	-5.82486354E-5	0.0023833477
10907750	0.5855802959	-4.40436653E-5	0.002338004
10908000	0.5724062162	-5.94368668E-5	0.0022772671
10908250	0.5608838767	-1.367660694E-4	0.0021392011
10908500	0.5476769777	-5.19532509E-5	0.0020859478
10908750	0.5360825949	-3.59009173E-5	0.0020487469
10909000	0.5228412423	-2.9973212E-5	0.0020174737
10909250	0.5112201359	-3.33585505E-5	0.0019828151
10909500	0.4981089119	-3.80038627E-5	0.0019435113
10909750	0.4864809147	-3.67752763E-5	0.001905436
10910000	0.473297294	-4.67519361E-5	0.0018573841
10910250	0.4616896156	-4.42588921E-5	0.0018118252
10910500	0.448452901	-4.99085961E-5	0.0017606166
10910750	0.4368446926	-5.19263476E-5	0.0017073902
10911000	0.4237205706	-5.43117782E-5	0.0016517784
10911250	0.4121338294	-6.00332244E-5	0.0015904452
10911500	0.3989370456	-6.41853085E-5	0.0015249599
10911750	0.3873020253	-6.2212396E-5	0.0014614475
10912000	0.3741576728	-6.39611139E-5	0.0013961864
10912250	0.3625876283	-6.45216004E-5	0.0013303648
10912500	0.3494047143	-6.66469652E-5	0.0012624178
10912750	0.3378111266	-6.23020738E-5	0.0011988158
10913000	0.3246745041	-6.28266892E-5	0.0011346891
10913250	0.3131039296	-6.35351441E-5	0.0010698539
10913500	0.300263873	-6.22392993E-5	0.0010063146
10913750	0.2884421407	-5.75087932E-5	9.475058E-4
10914000	0.2752266283	-5.94996413E-5	8.867062E-4
10914250	0.2635219498	-5.59573665E-5	8.294488E-4
10914500	0.2503499019	-5.63026262E-5	7.718462E-4
10914750	0.2389239442	-5.15227973E-5	7.190234E-4
10915000	0.2260160405	-5.22222845E-5	6.655011227E-4
10915250	0.2143303998	-4.57340926E-5	6.1846703E-4
10915500	0.2012574723	-4.78325541E-5	5.693344759E-4
10915750	0.1896003221	-3.77213775E-5	5.303130984E-4
10916000	0.1764603867	-4.12860717E-5	4.877270267E-4
10916250	0.1647888367	-3.52731724E-5	4.511538543E-4
10916500	0.1516847684	-3.67618246E-5	4.130920297E-4
10916750	0.1400175914	-3.19237051E-5	3.798683246E-4
10917000	0.1268917467	-2.94844678E-5	3.490838569E-4
10917250	0.1152823898	-2.52113186E-5	3.225725383E-4
10917500	0.1021571635	-2.26824035E-5	2.985901348E-4
10917750	0.089184113	-1.95481629E-5	2.777419718E-4
10918000	0.0773984837	-2.18080445E-5	2.546339273E-4
10918250	0.0656990269	-1.84496094E-5	2.348843179E-4
10918500	0.0526137108	-1.95167757E-5	2.140675422E-4
10918750	0.0409727946	-1.49611414E-5	1.978064008E-4
10919000	0.0278787177	-1.47548823E-5	1.817515185E-4
10919250	0.0162348246	-1.45217199E-5	1.659297986E-4
10919500	0.0036664233	-1.05220882E-5	1.541077104E-4
