Acquisition Time (ms)	Shunt Voltage (V)	Sample Voltage (V)	Integrated Sample Voltage (V)	
milliseconds	Volts	Volts	Volts	
9316000	0.0074620445	5.3060798E-6	4.4560798E-6
9316250	0.0191645094	2.2256389E-6	5.8317187E-6
9316500	0.0321346889	4.9922066E-6	9.9739253E-6
9316750	0.0432958027	2.6202223E-6	1.17441476E-5
9317000	0.0566020459	4.7500759E-6	1.56442234E-5
9317250	0.0679435818	2.817514E-6	1.76117374E-5
9317500	0.0809141993	6.8844133E-6	2.36461508E-5
9317750	0.092730603	2.5753833E-6	2.53715341E-5
9318000	0.105741882	5.2208856E-6	2.97424197E-5
9318250	0.1175761602	3.3959374E-6	3.22883571E-5
9318500	0.1324928839	3.5752935E-6	3.50136506E-5
9318750	0.1424003219	2.5708994E-6	3.67345499E-5
9319000	0.1553218746	6.1311178E-6	4.20156677E-5
9319250	0.1669930712	3.5170028E-6	4.46826705E-5
9319500	0.1796317069	5.3240154E-6	4.91566858E-5
9319750	0.1918097688	3.2703881E-6	5.15770739E-5
9320000	0.2044151435	5.8845031E-6	5.66115771E-5
9320251	0.2166314135	3.503551E-6	5.92651281E-5
9320501	0.2293182842	5.341951E-6	6.37570791E-5
9320750	0.2414514239	4.2433949E-6	6.7150474E-5
9321001	0.2541351585	5.1177559E-6	7.14182299E-5
9321250	0.2662568137	4.3375569E-6	7.49057867E-5
9321500	0.2789358661	5.7455022E-6	7.98012889E-5
9321750	0.2910999257	5.0325617E-6	8.39838506E-5
9322000	0.3038275664	6.6602182E-6	8.97940688E-5
9322250	0.3159403874	5.38679E-6	9.43308588E-5
9322500	0.3285952781	6.3239256E-6	9.98047844E-5
9322750	0.3407297871	6.0817948E-6	1.050365792E-4
9323000	0.3533564082	1.02832112E-5	1.144697905E-4
9323250	0.3655642415	1.02607917E-5	1.238805822E-4
9323500	0.3776311685	3.06356435E-5	1.536662257E-4
9323750	0.3903916286	1.453473146E-4	2.981635403E-4
9324000	0.4022761282	2.786985672E-4	5.760121075E-4
9324250	0.4148767324	3.030327047E-4	8.781948121E-4
9324500	0.4271767512	2.679147823E-4	0.0011452596
9324750	0.4397301363	2.571309974E-4	0.0014015406
9325000	0.4519924328	2.130452706E-4	0.0016137359
9325250	0.4645127337	1.80873272E-4	0.0017937591
9325500	0.4768226026	7.73489371E-5	0.0018702581
9325750	0.4894021813	6.14221163E-5	0.0019308302
9326000	0.501638726	4.51769385E-5	0.0019751571
9326250	0.5142255488	5.92160364E-5	0.0020335232
9326500	0.5265287037	4.41859961E-5	0.0020768592
9326750	0.5390583247	5.93371018E-5	0.0021353463
9327000	0.5511873123	4.60826867E-5	0.0021805789
9327250	0.563616002	6.09378549E-5	0.0022406668
9327500	0.5753845962	4.40021561E-5	0.002283819
9327750	0.5883971417	6.22337026E-5	0.0023452027
9328000	0.6001798707	4.4329481E-5	0.0023886821
9328250	0.6131979376	6.20408948E-5	0.002449873
9328500	0.6249798716	4.50020663E-5	0.0024940251
9328750	0.6380118082	6.15476656E-5	0.0025547228
9329000	0.6498822172	4.43563844E-5	0.0025982292
9329250	0.6628879161	6.12382763E-5	0.0026586174
9329500	0.6746516074	4.37196703E-5	0.0027014871
9329750	0.687710886	6.01262686E-5	0.0027607634
9330000	0.6996224627	4.34865073E-5	0.0028033999
9330250	0.7125529821	6.07046919E-5	0.0028632546
9330500	0.7243209579	4.50917443E-5	0.0029074963
9330750	0.7373500676	6.08526607E-5	0.002967499
9331000	0.7491276286	4.42084156E-5	0.0030108574
9331250	0.7617291163	6.31484187E-5	0.0030731558
9331500	0.7733428903	4.84277676E-5	0.0031207336
9331750	0.7865924587	6.30183855E-5	0.003182902
9332000	0.7981205846	4.85712525E-5	0.0032306232
9332250	0.8109392624	6.53455308E-5	0.0032951187
9332500	0.8230150236	4.87640603E-5	0.0033430328
9332750	0.8358267223	6.17001182E-5	0.0034038829
9333000	0.8474662923	5.1804146E-5	0.0034548371
9333250	0.8604198691	6.30049338E-5	0.003516992
9333500	0.8722742882	5.09925597E-5	0.0035671346
9333751	0.8853813159	6.35205825E-5	0.0036298051
9334000	0.8970954029	5.20059216E-5	0.0036809611
9334250	0.9102119274	6.35699055E-5	0.003743681
9334500	0.9219538864	5.09611724E-5	0.0037937921
9334750	0.9350225294	6.32156772E-5	0.0038561578
9335000	0.9468219994	5.20911157E-5	0.0039073989
9335251	0.9599220923	6.41797162E-5	0.0039707287
9335500	0.9716612243	5.14005948E-5	0.0040212792
9335750	0.9847593295	5.29206377E-5	0.0040733499
9336000	0.9964276108	5.10015275E-5	0.0041235014
9336250	1.0090339	5.54361068E-5	0.0041780875
9336500	1.0210764	5.49114902E-5	0.004232149
9336750	1.0338917	5.58979487E-5	0.004287197
9337000	1.0459134	5.42927117E-5	0.0043406397
9337250	1.0586468	5.54450746E-5	0.0043952347
9337500	1.0707666	5.44944873E-5	0.0044488792
9337751	1.0835954	4.35178947E-5	0.0044915471
9338000	1.0953203	5.79874472E-5	0.0045486846
9338250	1.1077282	4.50513892E-5	0.004592886
9338500	1.1201511	5.84268696E-5	0.0046504628
9338750	1.1325267	4.53921658E-5	0.004695005
9339000	1.1450296	5.83999662E-5	0.004752555
9339250	1.1573813	4.60512994E-5	0.0047977563
9339500	1.1698484	5.79067369E-5	0.004854813
9339750	1.1822343	4.71184682E-5	0.0049010815
9340000	1.1946711	5.76107994E-5	0.0049578423
9340250	1.2096807	6.1848087E-5	0.0050188404
9340500	1.2195059	5.72296677E-5	0.00507522
9340750	1.2319667	4.67014652E-5	0.0051210715
9341000	1.244366	5.76377028E-5	0.0051778592
9341250	1.256743	4.6253075E-5	0.0052232623
9341500	1.2690083	5.90770354E-5	0.0052814893
9341750	1.2807759	4.39842205E-5	0.0053246235
9342000	1.2937485	6.01083329E-5	0.0053838819
9342250	1.3057527	4.3316119E-5	0.005426348
9342500	1.3185315	6.08078217E-5	0.0054863058
9342750	1.3306666	4.22085952E-5	0.0055276644
9343000	1.3434308	6.079437E-5	0.0055876088
9343250	1.3554341	4.29574069E-5	0.0056297162
9343500	1.3683212	6.12248246E-5	0.005690091
9343750	1.3802117	4.42218673E-5	0.0057334629
9344000	1.3928258	6.36281962E-5	0.0057962411
9344250	1.4046094	4.69256604E-5	0.0058423167
9344500	1.4176302	6.22964772E-5	0.0059037632
9344750	1.4292886	4.6208236E-5	0.0059491214
9345000	1.4425067	6.32605162E-5	0.0060115319
9345250	1.4541131	4.72664369E-5	0.0060579484
9345500	1.4673214	5.97541047E-5	0.0061168525
9345750	1.4785865	4.94411295E-5	0.0061654436
9346250	1.4813481	-4.31962097E-5	0.0061213974
9346500	1.4682262	-5.92888984E-5	0.0060612585
9346750	1.4565958	-4.79715548E-5	0.006012437
9347000	1.4434164	-6.08223894E-5	0.0059507646
9347250	1.4317856	-4.80657165E-5	0.0059018488
9347500	1.4186281	-6.10600357E-5	0.0058399388
9347750	1.4068899	-4.69312918E-5	0.0057921575
9348000	1.3937212	-6.14456504E-5	0.0057298619
9348250	1.3820374	-4.71285831E-5	0.0056818833
9348500	1.3688286	-6.1669845E-5	0.0056193634
9348750	1.3572098	-4.73348421E-5	0.0055711786
9349000	1.3440603	-6.05712915E-5	0.0055097573
9349250	1.3323577	-4.833475E-5	0.0054605726
9349500	1.3197223	-5.75267288E-5	0.0054021958
9349750	1.307699	-5.06035994E-5	0.0053507422
9350000	1.2948212	-5.72218241E-5	0.0052926704
9350250	1.2828331	-5.09892141E-5	0.0052408312
9350500	1.2700583	-5.62622712E-5	0.0051837189
9350750	1.2580283	-5.16842174E-5	0.0051311847
9351000	1.2451144	-5.56569458E-5	0.0050746778
9351250	1.2331749	-5.18321858E-5	0.0050219956
9351500	1.2202593	-5.76522778E-5	0.0049634933
9351750	1.2083491	-5.14869262E-5	0.0049111564
9352001	1.1953586	-4.27792078E-5	0.0048675272
9352250	1.1837349	-5.56838491E-5	0.0048109933
9352500	1.1712202	-4.50570249E-5	0.0047650863
9352750	1.1588869	-5.41638097E-5	0.0047100725
9353000	1.1463495	-4.56668342E-5	0.0046635556
9353251	1.1340517	-5.35898715E-5	0.0046091158
9353500	1.1214573	-4.71285831E-5	0.0045611372
9353750	1.1092282	-5.37064527E-5	0.0045065807
9354000	1.0966872	-4.65232576E-5	0.0044592075
9354250	1.0843574	-5.46884251E-5	0.0044036691
9354500	1.0718124	-4.73124226E-5	0.0043555066
9354750	1.059496	-5.46704895E-5	0.0042999861
9355000	1.0470641	-4.55278336E-5	0.0042536083
9355250	1.0346916	-5.38454534E-5	0.0041989129
9355500	1.0221292	-4.58775772E-5	0.0041521853
9355750	1.0098275	-5.49664264E-5	0.0040963688
9356000	0.9959014869	-5.91095427E-5	0.0040364093
9356250	0.9849505469	-5.27693193E-5	0.00398279
9356500	0.9723367796	-4.84737507E-5	0.0039334662
9356750	0.9600948902	-5.40113574E-5	0.0038786049
9357000	0.9475290488	-4.62318046E-5	0.0038315231
9357250	0.9352678566	-5.43566171E-5	0.0037763165
9357500	0.9226835957	-4.66263872E-5	0.0037288401
9357750	0.9103781881	-5.2782771E-5	0.0036752073
9358000	0.8985063656	-3.92324491E-5	0.0036351248
9358251	0.8858668465	-5.62084645E-5	0.0035780664
9358500	0.873782781	-3.96584189E-5	0.003537558
9358750	0.8610059335	-5.64685302E-5	0.0034802394
9359000	0.848864357	-3.95463216E-5	0.0034398431
9359250	0.8361074307	-5.73339214E-5	0.0033816592
9359500	0.8240990306	-3.94207726E-5	0.0033413884
9359750	0.8113974067	-5.69303711E-5	0.003283608
9360001	0.7991570192	-4.04924228E-5	0.0032422656
9360250	0.7866016905	-5.72442436E-5	0.0031841714
9360500	0.7744904597	-3.9734645E-5	0.0031435867
9360750	0.7617988185	-5.72038885E-5	0.0030855328
9361000	0.7496494238	-4.03848094E-5	0.003044298
9361250	0.7369369779	-5.6522337E-5	0.0029869257
9361500	0.7247605945	-3.95194182E-5	0.0029465563
9361750	0.71250139	-5.78450851E-5	0.0028878612
9362000	0.7008334621	-4.2685046E-5	0.0028443262
9362250	0.6876899047	-5.91274782E-5	0.0027843487
9362500	0.6759092516	-4.19900428E-5	0.0027415086
9362750	0.6628520049	-5.91992205E-5	0.0026814594
9363001	0.651108014	-4.27074655E-5	0.0026379019
9363250	0.6379980268	-5.87687669E-5	0.0025782832
9363500	0.6263096917	-4.25056903E-5	0.0025349275
9363750	0.6131473615	-5.89839937E-5	0.0024750935
9364000	0.6015165374	-4.21918179E-5	0.0024320517
9364250	0.5883556207	-5.96027708E-5	0.0023715989
9364500	0.576554163	-4.17837837E-5	0.0023289651
9364750	0.5635073407	-5.9468254E-5	0.0022686469
9365000	0.55226995	-4.60569329E-5	0.0022217399
9365250	0.5391733467	-6.06430338E-5	0.0021602469
9365500	0.5275289178	-4.53619296E-5	0.002114035
9365750	0.5142781568	-5.98090298E-5	0.0020533759
9366000	0.5026656196	-4.57296087E-5	0.0020067963
9366250	0.4894510789	-6.03740002E-5	0.0019455723
9366500	0.4778230376	-4.56713181E-5	0.001899051
9366750	0.4646408304	-6.06071626E-5	0.0018375939
9367000	0.4529890249	-4.53484779E-5	0.0017913954
9367250	0.4397743076	-6.01542895E-5	0.0017303911
9367500	0.4281383596	-4.54471235E-5	0.001684094
9367750	0.4149332717	-6.04502264E-5	0.0016227937
9368000	0.4033692787	-9.11469515E-5	0.0015307968
9368250	0.390164014	-4.96754338E-5	0.0014802714
9368500	0.3785343384	-2.797788E-5	0.0014514435
9368750	0.3652934275	-2.9143692E-5	0.0014214498
9369000	0.3537162715	-2.82962364E-5	0.0013923035
9369250	0.3409137604	-3.22644809E-5	0.0013591891
9369500	0.3291545746	-3.6909793E-5	0.0013214293
9369750	0.3162215375	-4.10618771E-5	0.0012795174
9370000	0.3043600069	-4.07166174E-5	0.0012379508
9370250	0.2913240065	-4.91104634E-5	0.0011879903
9370500	0.2795443252	-5.27872549E-5	0.0011343531
9370750	0.2665236523	-5.33029024E-5	0.0010802002
9371000	0.2547205161	-5.66613376E-5	0.0010226888
9371250	0.2417305422	-5.81858609E-5	9.63653E-4
9371500	0.2298161385	-5.90019293E-5	9.03801E-4
9371750	0.2167961282	-6.06385499E-5	8.423125E-4
9372000	0.2050368982	-5.87284118E-5	7.82734064E-4
9372250	0.1919974966	-6.24903973E-5	7.193936667E-4
9372500	0.180218478	-6.0010805E-5	6.585328617E-4
9372750	0.1671753218	-5.71321463E-5	6.005507154E-4
9373000	0.1553741292	-5.27244804E-5	5.46976235E-4
9373250	0.1429544946	-5.2948675E-5	4.931775601E-4
9373500	0.1307314664	-4.69626791E-5	4.45364881E-4
9373750	0.1180707451	-4.51422189E-5	3.993726621E-4
9374000	0.1059695412	-4.08735536E-5	3.576491085E-4
9374250	0.0920611574	-4.21200756E-5	3.146790329E-4
9374500	0.0811827338	-3.67080179E-5	2.77121015E-4
9374750	0.0684873465	-3.3421325E-5	2.4284969E-4
9375000	0.0563633784	-2.72873607E-5	2.147123293E-4
9375250	0.0436464423	-2.63950661E-5	1.874672632E-4
9375500	0.0315266177	-2.08036527E-5	1.658136105E-4
9375750	0.0194673181	-2.27003391E-5	1.422632714E-4
9376000	0.0067043569	-1.7552831E-5	1.238604404E-4
