Acquisition Time (ms)	Shunt Voltage (V)	Sample Voltage (V)	Integrated Sample Voltage (V)	
milliseconds	Volts	Volts	Volts	
8651000	0.0086383748	3.2614203E-6	2.6114203E-6
8651250	0.0214321238	6.0504075E-6	8.0118279E-6
8651501	0.0331912697	3.5439062E-6	1.0905734E-5
8651750	0.0455458643	5.7185988E-6	1.59743328E-5
8652000	0.0578436348	3.8981344E-6	1.92224672E-5
8652250	0.070334508	5.3060798E-6	2.3878547E-5
8652500	0.0825883005	3.6111647E-6	2.68397117E-5
8652750	0.095231539	5.7724056E-6	3.19621173E-5
8653000	0.107460198	3.4407764E-6	3.47528937E-5
8653250	0.1224453346	3.6560037E-6	3.77588974E-5
8653500	0.1322897403	3.6604876E-6	4.0769385E-5
8653750	0.144959075	5.3957578E-6	4.55151428E-5
8654000	0.1571648322	4.194072E-6	4.90592148E-5
8654250	0.1697528477	5.6692758E-6	5.40784906E-5
8654500	0.1820547658	3.0282574E-6	5.64567481E-5
8654750	0.1946188845	4.9563354E-6	6.07630834E-5
8655000	0.2068767639	3.2569364E-6	6.33700199E-5
8655250	0.219550074	5.0774007E-6	6.77974206E-5
8655500	0.2317100257	3.8488115E-6	7.09962321E-5
8655750	0.2444008718	5.5930495E-6	7.59392816E-5
8656000	0.2563324581	4.3823959E-6	7.96716775E-5
8656250	0.2685748775	4.1447491E-6	8.31664266E-5
8656500	0.2811757909	6.027988E-6	8.85444146E-5
8656750	0.2933114042	5.8710514E-6	9.3765466E-5
8657000	0.3060041055	1.05746649E-5	1.036901309E-4
8657250	0.3183261216	2.143916E-5	1.244792909E-4
8657500	0.3308321993	1.781874146E-4	3.020167055E-4
8657750	0.3430852198	2.63803044E-4	5.651697494E-4
8658000	0.3556556109	2.784026297E-4	8.429223791E-4
8658250	0.3678905212	2.412086606E-4	0.001083481
8658500	0.3805020799	2.301603254E-4	0.0013129914
8658750	0.3928119488	1.813037266E-4	0.0014936451
8659000	0.4053557488	1.189774855E-4	0.0016119726
8659250	0.4176617307	5.16158221E-5	0.0016629384
8659500	0.4302685631	5.9278811E-5	0.0017215672
8659750	0.4424972894	4.22758537E-5	0.0017631931
8660000	0.4550191362	5.98931056E-5	0.0018224362
8660250	0.4665943487	4.51903902E-5	0.0018669766
8660500	0.4795720872	6.16507953E-5	0.0019279774
8660750	0.4914508446	4.55804897E-5	0.0019729078
8661000	0.504511095	6.14086646E-5	0.0020336665
8661250	0.5162676305	4.47285483E-5	0.0020777451
8661500	0.5293298245	6.22023153E-5	0.0021392974
8661750	0.5410981537	4.56656838E-5	0.0021843131
8662000	0.5541528827	6.25744792E-5	0.0022462375
8662250	0.5660513847	4.43563844E-5	0.0022899439
8662500	0.5789785912	6.16732148E-5	0.0023509671
8662750	0.5908730294	4.56387804E-5	0.0023959559
8663000	0.6038904337	6.06777885E-5	0.0024559837
8663250	0.615664726	4.6163397E-5	0.0025014971
8663500	0.6287449419	6.19243134E-5	0.0025627714
8663750	0.6406043964	4.43339649E-5	0.0026064554
8664000	0.6536058549	6.20588304E-5	0.0026678642
8664250	0.6654556801	4.43429327E-5	0.0027115571
8664500	0.6780453298	6.25296402E-5	0.0027734368
8664750	0.6900599139	4.61768487E-5	0.0028189636
8665000	0.7029638864	6.45922352E-5	0.0028829059
8665250	0.7145456362	4.85847042E-5	0.0029308406
8665500	0.7277886673	6.32380967E-5	0.0029934287
8665750	0.7393523069	4.86743822E-5	0.003041453
8666000	0.7526129181	6.32919035E-5	0.003104095
8666250	0.7642433889	4.87506086E-5	0.0031521956
8666500	0.7774460916	6.31842899E-5	0.0032147299
8666750	0.7891025792	4.80511198E-5	0.003262131
8667001	0.8023079764	6.24803172E-5	0.0033239613
8667251	0.8140026721	4.68897891E-5	0.0033702011
8667500	0.8271471129	6.30004499E-5	0.0034325515
8667750	0.8386612366	4.85757364E-5	0.0034804773
8668000	0.851537602	6.29242236E-5	0.0035427515
8668250	0.8632230218	5.19252114E-5	0.0035940267
8668500	0.8763461279	6.36326801E-5	0.0036570094
8668750	0.8881244398	5.11943353E-5	0.0037075537
8669000	0.9012186579	6.35654216E-5	0.0037704691
8669250	0.9130334995	5.23197948E-5	0.0038221389
8669500	0.9260541283	6.3960005E-5	0.0038854489
8669750	0.9378475026	5.08490748E-5	0.003935648
8670000	0.9509968023	6.29556109E-5	0.0039979536
8670250	0.9625399023	5.33779957E-5	0.0040506816
8670500	0.9752632143	5.60145302E-5	0.0041060461
8670750	0.9873590293	5.46155527E-5	0.0041600117
8671000	1.0001223	5.53195253E-5	0.0042146812
8671250	1.0122114	5.48621673E-5	0.0042688934
8671500	1.0249485	5.50773946E-5	0.0043233208
8671750	1.0370661	5.51491371E-5	0.0043778199
8672000	1.0498408	5.61176599E-5	0.0044332876
8672250	1.0619337	5.50818785E-5	0.0044877195
8672500	1.0747797	5.55078492E-5	0.0045425773
8672750	1.0868373	5.43823898E-5	0.0045963097
8673000	1.0996635	5.70637633E-5	0.0046527235
8673250	1.1117029	5.52298473E-5	0.0047073033
8673500	1.1237598	4.54370048E-5	0.0047520903
8673750	1.1362995	5.81712872E-5	0.0048096116
8674000	1.1487222	4.6943596E-5	0.0048559052
8674250	1.1611487	5.77856716E-5	0.0049130409
8674500	1.1736149	4.66566262E-5	0.0049590475
8674750	1.1860354	5.80367701E-5	0.0050164343
8675000	1.1983988	4.61006223E-5	0.0050618849
8675250	1.2135056	4.46747414E-5	0.0051059096
8675501	1.2233951	4.6988435E-5	0.0051522481
8675750	1.2357605	5.77632521E-5	0.0052093613
8676000	1.2482039	4.05899065E-5	0.0052493012
8676250	1.260307	6.16149241E-5	0.0053102661
8676500	1.2723111	4.3226441E-5	0.0053528426
8676750	1.2851862	6.04670451E-5	0.0054126596
8677000	1.2971222	4.48944526E-5	0.0054569041
8677251	1.3100797	5.94088442E-5	0.0055156629
8677500	1.3221418	4.28991161E-5	0.005557912
8677750	1.3349407	6.06957241E-5	0.0056179578
8678000	1.3468909	4.44953853E-5	0.0056618032
8678250	1.3598676	6.08033378E-5	0.0057219565
8678500	1.3718717	4.18453991E-5	0.0057631519
8678750	1.3847232	6.11172109E-5	0.0058236191
8679000	1.3967487	4.40425112E-5	0.0058670116
8679250	1.4096149	6.11216949E-5	0.0059274833
8679500	1.4216797	4.38541873E-5	0.0059706875
8679750	1.4345303	6.11934373E-5	0.0060312309
8680000	1.4464729	4.37196703E-5	0.0060743006
8680250	1.4593948	6.12606958E-5	0.0061349113
8680500	1.4714047	4.24731454E-5	0.0061767344
8680751	1.4843092	6.05477554E-5	0.0062366322
8681250	1.4789166	-5.42176164E-5	0.0061817646
8681500	1.4668803	-4.11739744E-5	0.0061399406
8681750	1.4541429	-5.66613376E-5	0.0060826293
8682000	1.4428003	-4.37432446E-5	0.006038236
8682250	1.4296125	-6.0217064E-5	0.005977369
8682500	1.4179866	-4.37028895E-5	0.0059330161
8682750	1.404731	-6.00242567E-5	0.0058723418
8683000	1.3930588	-4.27119494E-5	0.0058289799
8683250	1.3796798	-6.08896478E-5	0.0057674402
8683500	1.3681679	-4.24204964E-5	0.0057243697
8683750	1.3550068	-5.7934763E-5	0.005665785
8684000	1.3437337	-4.70433891E-5	0.0056180916
8684250	1.330545	-6.1006229E-5	0.0055564353
8684500	1.3188416	-4.67474522E-5	0.0055090379
8684750	1.3057028	-6.17998779E-5	0.005446588
8685000	1.2939868	-4.75590367E-5	0.005398379
8685250	1.2807696	-6.08313572E-5	0.0053368976
8685500	1.2690938	-4.83526856E-5	0.0052878949
8685750	1.2563942	-6.30643355E-5	0.0052241806
8686000	1.2442128	-4.86575903E-5	0.005174873
8686250	1.2316268	-5.56703975E-5	0.0051185526
8686500	1.219595	-5.06260189E-5	0.0050672766
8686750	1.2067052	-5.61098189E-5	0.0050105168
8687000	1.1947158	-5.00431129E-5	0.0049598237
8687250	1.1817832	-5.8181377E-5	0.0049009923
8687500	1.1698686	-5.15990235E-5	0.0048487433
8687750	1.1568786	-5.9010897E-5	0.0047890824
8688000	1.1449889	-5.13568933E-5	0.0047370755
8688250	1.1320755	-5.68675966E-5	0.0046795579
8688500	1.1200767	-5.02986948E-5	0.0046286092
8688750	1.1072364	-4.22590763E-5	0.0045857001
8689000	1.0952576	-5.16304107E-5	0.0045334197
8689251	1.0828075	-4.35190499E-5	0.0044892506
8689500	1.0706546	-5.42714231E-5	0.0044343292
8689750	1.0579991	-4.55009302E-5	0.0043881783
8690000	1.045778	-5.47915546E-5	0.0043327367
8690250	1.0331796	-4.51736061E-5	0.0042869131
8690500	1.0208377	-5.25451247E-5	0.004233718
8690750	1.008275	-4.70568408E-5	0.0041860112
8691000	0.9952461178	-4.89849144E-5	0.0041363762
8691250	0.9834404638	-4.72182609E-5	0.004088508
8691500	0.9711066982	-5.33298058E-5	0.0040345282
8691750	0.9585217748	-4.65053221E-5	0.0039873729
8692000	0.9465078092	-5.65357886E-5	0.0039301871
8692250	0.9343661886	-4.03668738E-5	0.0038891702
8692500	0.9216706161	-5.61994967E-5	0.0038323207
8692750	0.9095096927	-4.03265188E-5	0.0037913442
8693000	0.8968012222	-5.61143028E-5	0.0037345799
8693250	0.8846703352	-4.01650987E-5	0.0036937648
8693500	0.8719711408	-5.74863737E-5	0.0036356284
8693750	0.8596758042	-3.88782217E-5	0.0035961002
8694000	0.8474521133	-5.91185105E-5	0.0035363317
8694250	0.8357863939	-4.2936144E-5	0.0034927455
8694500	0.8226303361	-5.90288326E-5	0.0034330667
8694750	0.8108390819	-4.20573011E-5	0.0033903594
8695001	0.7977447755	-5.93068339E-5	0.0033304026
8695250	0.786023842	-4.2604336E-5	0.0032871482
8695500	0.7729160192	-5.96386419E-5	0.0032268596
8695750	0.7611896968	-4.1729977E-5	0.0031844796
8696000	0.7481119546	-5.87463474E-5	0.0031250833
8696250	0.7364310403	-4.32858876E-5	0.0030811474
8696500	0.7232822707	-5.9261995E-5	0.0030212354
8696750	0.7119907702	-4.53081229E-5	0.0029752773
8697000	0.6987327651	-5.96610614E-5	0.0029149662
8697250	0.6872193924	-4.68550656E-5	0.0028674611
8697500	0.6739514487	-5.98987077E-5	0.0028069124
8697750	0.6623720399	-4.63932248E-5	0.0027598692
8698000	0.6491189378	-6.0593711E-5	0.0026986255
8698250	0.6374898805	-4.6299063E-5	0.0026516764
8698500	0.6242373526	-5.97328037E-5	0.0025912936
8698750	0.6125447771	-4.52049934E-5	0.0025454386
8699000	0.5993857597	-6.06833888E-5	0.0024841052
8699250	0.587763019	-4.667571E-5	0.0024367795
8699500	0.5749919137	-5.90422843E-5	0.0023770872
8699750	0.5631456222	-4.97740794E-5	0.0023266632
8700000	0.5502177972	-5.94189312E-5	0.0022665942
8700250	0.5383096659	-4.87876231E-5	0.0022171566
8700500	0.5252831182	-5.9759707E-5	0.0021567469
8700750	0.5134188048	-4.94826264E-5	0.0021066143
8701000	0.5003947307	-5.94368668E-5	0.0020465274
8701250	0.4885502502	-4.89669788E-5	0.0019969104
8701500	0.4755517512	-5.8889832E-5	0.0019373706
8701750	0.4637309465	-4.99803384E-5	0.0018867403
8702000	0.4506803696	-5.87777347E-5	0.0018273125
8702250	0.4388663672	-4.93570774E-5	0.0017773054
8702500	0.4258582389	-5.92440594E-5	0.0017174114
8702750	0.4140054542	-4.85992997E-5	0.0016681621
8703000	0.4010330163	-5.81993126E-5	0.0016093128
8703250	0.3891238691	-4.89131721E-5	0.0015597496
8703500	0.3761133997	-6.07282277E-5	0.0014983714
8703750	0.3643101751	-4.84154601E-5	0.0014493059
8704000	0.3513678179	-4.833475E-5	0.0014003212
8704250	0.3397542206	-5.99076755E-5	0.0013397635
8704500	0.3270441599	-5.69886617E-5	0.0012821248
8704750	0.3148838549	-2.86953028E-5	0.0012527795
8705000	0.302139429	-2.64533567E-5	0.0012256762
8705250	0.2900095138	-2.6691003E-5	0.0011983352
8705500	0.277221005	-3.03229556E-5	0.0011673622
8705750	0.2651637516	-3.05471502E-5	0.0011361651
8706000	0.2524890721	-3.73536984E-5	0.0010981614
8706250	0.240304517	-4.08018114E-5	0.0010567095
8706500	0.2275516103	-4.55995759E-5	0.00101046
8706750	0.2157404349	-4.81240071E-5	9.61686E-4
8707000	0.2034565387	-4.97875311E-5	9.112484E-4
8707250	0.1908796103	-5.23568012E-5	8.582416E-4
8707500	0.1785428852	-5.38454534E-5	8.037461813E-4
8707750	0.1660293867	-5.91005749E-5	7.439956065E-4
8708000	0.1537389531	-5.55448485E-5	6.87800758E-4
8708250	0.1411830502	-5.45359728E-5	6.326147852E-4
8708500	0.1288195132	-5.17245724E-5	5.802402128E-4
8708750	0.1163466964	-5.04197598E-5	5.291704529E-4
8709000	0.1040029481	-4.82585239E-5	4.802619291E-4
8709250	0.0908538114	-4.53708974E-5	4.342410317E-4
8709500	0.0791877081	-3.93445464E-5	3.942464853E-4
8709750	0.0669247526	-3.9236933E-5	3.543595522E-4
8710000	0.0544034447	-3.66766306E-5	3.170329216E-4
8710250	0.0421173269	-3.23765782E-5	2.840063434E-4
8710500	0.0301684261	-2.74846519E-5	2.558716915E-4
8710750	0.0173803448	-2.44669925E-5	2.30754699E-4
8711000	0.0056953522	-2.07408782E-5	2.093638208E-4
