Acquisition Time (ms)	Shunt Voltage (V)	Sample Voltage (V)	Integrated Sample Voltage (V)	
milliseconds	Volts	Volts	Volts	
7018250	0.0112234721	5.1805305E-6	4.8305305E-6
7018500	0.0232277801	4.0191998E-6	8.4997303E-6
7018750	0.036070026	6.1983763E-6	1.43481066E-5
7019000	0.0480814366	2.8802886E-6	1.68783952E-5
7019250	0.0609628689	6.3239256E-6	2.28523208E-5
7019500	0.0729775021	2.9834184E-6	2.54857392E-5
7019750	0.0852633339	5.01911E-6	3.01548492E-5
7020000	0.0976040185	4.333073E-6	3.41379221E-5
7020250	0.1101459499	3.826392E-6	3.76143142E-5
7020500	0.1251824071	2.8847725E-6	4.01490867E-5
7020750	0.1350513277	4.5707198E-6	4.43698065E-5
7021000	0.1474100943	2.9879023E-6	4.70077088E-5
7021250	0.1599186898	4.9922066E-6	5.16499154E-5
7021500	0.1723275465	5.3554027E-6	5.6655318E-5
7021750	0.184958143	7.1355119E-6	6.34408299E-5
7022000	0.1971956153	2.31654624E-5	8.62562923E-5
7022250	0.209798428	1.882537751E-4	2.741600674E-4
7022500	0.2221042332	2.357652032E-4	5.095752706E-4
7022750	0.2346282003	2.031851696E-4	7.124104402E-4
7023000	0.2470342743	1.827699627E-4	8.948304028E-4
7023250	0.2589047717	1.123457941E-4	0.0010068262
7023500	0.2715887712	7.15916066E-5	0.0010780678
7023750	0.283727079	4.44236429E-5	0.0011221414
7024000	0.2965510573	6.079437E-5	0.0011825858
7024250	0.3087490404	4.32488605E-5	0.0012254847
7024500	0.3214387823	5.97002978E-5	0.001284835
7024750	0.3335675932	4.38407356E-5	0.0013283257
7025000	0.346391174	6.02742373E-5	0.0013882499
7025250	0.3584479416	4.36255083E-5	0.0014315255
7025500	0.3712746585	5.98079115E-5	0.0014909834
7025750	0.3833475044	4.28094381E-5	0.0015334428
7026000	0.3961566854	6.01576559E-5	0.0015932505
7026250	0.4083487054	4.30470849E-5	0.0016359475
7026500	0.4210595611	5.86465808E-5	0.0016942441
7026750	0.432533798	4.53607785E-5	0.0017392549
7027000	0.4455626868	6.14310841E-5	0.001800336
7027250	0.457231189	4.6531077E-5	0.0018465171
7027500	0.4704779305	6.32560323E-5	0.0019094231
7027750	0.482221833	4.5885395E-5	0.0019549585
7028000	0.4954073973	6.24803172E-5	0.0020170888
7028250	0.5069450642	4.65445287E-5	0.0020632833
7028500	0.5203018805	6.31753221E-5	0.0021261087
7028750	0.5315842375	4.85308974E-5	0.0021742896
7029000	0.5447563737	6.39286177E-5	0.0022378682
7029250	0.5564345935	5.07638807E-5	0.0022882821
7029500	0.5696179934	6.3910682E-5	0.0023518427
7029750	0.5813023973	4.99657461E-5	0.0024014585
7030000	0.5945782476	6.35609377E-5	0.0024646694
7030250	0.6062219256	4.93559354E-5	0.0025136754
7030500	0.6195279449	6.31573865E-5	0.0025764827
7030750	0.6311401287	5.04634592E-5	0.0026265962
7031000	0.6443852358	6.3085644E-5	0.0026893318
7031250	0.6560425627	5.13692075E-5	0.0027403511
7031500	0.6688361512	6.13414061E-5	0.0028013425
7031750	0.6808777239	5.17055001E-5	0.002852698
7032000	0.6937336822	6.25161884E-5	0.0029148642
7032250	0.7055767934	5.40236776E-5	0.0029685378
7032500	0.718613368	6.27762548E-5	0.0030309641
7032751	0.7305497689	5.21673421E-5	0.0030827814
7033000	0.7434844404	6.16014724E-5	0.0031440329
7033250	0.7554370963	5.22570201E-5	0.0031959399
7033500	0.7684563116	6.27628031E-5	0.0032583527
7033750	0.7803262789	5.29699606E-5	0.0033109727
7034000	0.7933339213	6.18570548E-5	0.0033724797
7034251	0.805238033	5.12391743E-5	0.0034233689
7034500	0.8182270352	4.88940934E-5	0.003471913
7034750	0.8298054722	5.5610979E-5	0.003527174
7035000	0.8424435336	5.21763099E-5	0.0035790003
7035250	0.854748102	5.6113176E-5	0.0036347635
7035500	0.8673723379	5.28937342E-5	0.0036873072
7035750	0.8796182468	5.57679156E-5	0.0037427251
7036000	0.8922957532	5.20462767E-5	0.0037944214
7036250	0.9045643662	5.65436307E-5	0.003850615
7036500	0.9172214655	5.2400505E-5	0.0039026655
7036750	0.9294657843	5.57768834E-5	0.0039580924
7037000	0.9421860484	5.36156425E-5	0.0040113581
7037250	0.9543879628	5.58665614E-5	0.0040668746
7037500	0.9670459897	5.31538006E-5	0.0041196784
7037750	0.9793119966	5.60638531E-5	0.0041753923
7038000	0.9920321282	5.16292738E-5	0.0042266715
7038250	1.0042155	5.59248522E-5	0.0042822464
7038500	1.016902	5.02123607E-5	0.0043321088
7038750	1.0291475	5.58531097E-5	0.0043876119
7039000	1.0418601	5.4189582E-5	0.0044414515
7039250	1.0540242	5.62476931E-5	0.0044973491
7039500	1.0666972	4.02984528E-5	0.0045372976
7039750	1.078961	5.52567507E-5	0.0045922043
7040000	1.0910682	4.50513892E-5	0.0046369057
7040250	1.103603	5.7951576E-5	0.0046945073
7040500	1.1159082	4.44101912E-5	0.0047385675
7040750	1.1285109	5.97899759E-5	0.0047980075
7041000	1.140868	4.48002907E-5	0.0048424578
7041250	1.1534545	5.84492891E-5	0.0049005571
7041500	1.1657544	4.3181602E-5	0.0049433887
7041750	1.1783743	5.81398999E-5	0.0050011786
7042000	1.1906834	4.56029092E-5	0.0050464315
7042250	1.2058517	4.48989365E-5	0.0050909804
7042500	1.2156337	4.3912478E-5	0.0051345429
7042750	1.2282282	5.87272911E-5	0.0051929202
7043000	1.240492	4.37958966E-5	0.0052363661
7043250	1.2531105	6.01442042E-5	0.0052961603
7043500	1.2654684	4.5428037E-5	0.0053412383
7043750	1.2777884	6.11979212E-5	0.0054020862
7044000	1.2895066	4.50872604E-5	0.0054468235
7044250	1.3026178	6.2583447E-5	0.0055090569
7044500	1.3144704	4.50872604E-5	0.0055537942
7044750	1.3275536	6.23144128E-5	0.0056157586
7045001	1.3395778	4.41097697E-5	0.0056595184
7045250	1.3525281	6.13234705E-5	0.0057204919
7045500	1.3644387	4.55401346E-5	0.005765682
7045750	1.377484	6.01576559E-5	0.0058254896
7046000	1.3887014	4.87595764E-5	0.0058738992
7046250	1.4019302	6.40362313E-5	0.0059375855
7046500	1.413631	4.84591549E-5	0.0059856946
7046750	1.4269102	6.34891952E-5	0.0060488338
7047000	1.4386007	4.81721852E-5	0.006096656
7047250	1.4518651	6.30990957E-5	0.0061594051
7047500	1.4635111	4.7490632E-5	0.0062065457
7047750	1.4767577	6.08123056E-5	0.006267008
7048000	1.4882291	4.94770007E-5	0.006316135
7048250	1.4921877	-4.32320809E-5	0.0062725529
7048500	1.4811614	-4.70120019E-5	0.0062251909
7048750	1.4681023	-6.10959069E-5	0.006163745
7049001	1.4562492	-4.90207855E-5	0.0061143742
7049250	1.4431282	-6.03067419E-5	0.0060537175
7049500	1.4313606	-4.91553023E-5	0.0060042122
7049750	1.4182285	-6.06295821E-5	0.0059432326
7050000	1.406386	-4.95857559E-5	0.0058932969
7050250	1.3932784	-6.06609693E-5	0.0058322859
7050500	1.3814417	-4.87024292E-5	0.0057832335
7050750	1.3683506	-6.08358411E-5	0.0057220476
7051000	1.3565585	-5.10564725E-5	0.0056706412
7051250	1.3439445	-5.4899168E-5	0.005615392
7051500	1.3318646	-5.26617059E-5	0.0055623803
7051750	1.3190367	-5.36212588E-5	0.005508409
7052000	1.3069296	-5.28724488E-5	0.0054551866
7052250	1.2941428	-5.36750655E-5	0.0054011615
7052500	1.2819684	-5.13927644E-5	0.0053494187
7052750	1.2691624	-5.32490957E-5	0.0052958196
7053000	1.2570304	-5.22447039E-5	0.0052432249
7053250	1.244256	-5.38050984E-5	0.0051890698
7053500	1.2321552	-5.1827702E-5	0.0051368921
7053750	1.219297	-3.87571566E-5	0.005097785
7054000	1.2072808	-5.47063607E-5	0.0050427286
7054250	1.1951034	-4.20931723E-5	0.0050002855
7054500	1.1826355	-5.61815612E-5	0.0049437539
7054750	1.1702152	-4.31244674E-5	0.0049002794
7055000	1.1576863	-5.55089773E-5	0.0048444204
7055250	1.1452255	-4.16402992E-5	0.0048024301
7055500	1.1327683	-5.59842699E-5	0.0047460959
7055750	1.1203396	-4.25146581E-5	0.0047032312
7056000	1.1078699	-5.58497531E-5	0.0046470315
7056251	1.0952674	-4.46445069E-5	0.004602037
7056500	1.0828971	-5.61725934E-5	0.0045455144
7056750	1.0704216	-4.44651512E-5	0.0045006992
7057000	1.0582544	-5.65178531E-5	0.0044438314
7057250	1.0463772	-4.18913971E-5	0.00440159
7057501	1.0333355	-5.82576032E-5	0.0043429824
7057750	1.0213648	-4.17568804E-5	0.0043008755
7058000	1.008438	-5.80827314E-5	0.0042424428
7058250	0.9946769711	-4.52588001E-5	0.0041968339
7058500	0.9835089293	-5.82531193E-5	0.0041382308
7058750	0.9715562734	-4.08825214E-5	0.0040969983
7059000	0.9585999138	-5.78406012E-5	0.0040388077
7059250	0.946576363	-4.09677154E-5	0.00399749
7059500	0.9336787512	-5.82172482E-5	0.0039389227
7059750	0.9216958821	-4.02906477E-5	0.0038982821
7060000	0.9090272983	-5.83966038E-5	0.0038395355
7060250	0.8966863769	-4.08556181E-5	0.0037983299
7060500	0.8842246472	-6.0342613E-5	0.0037376373
7060750	0.8725424961	-4.48193786E-5	0.0036924679
7061000	0.8593442105	-6.10286485E-5	0.0036310892
7061250	0.8476520325	-4.42319888E-5	0.0035865072
7061500	0.8343744153	-6.08313572E-5	0.0035253259
7061750	0.8227314441	-4.28061111E-5	0.0034821698
7062000	0.8095104986	-6.11362619E-5	0.0034206835
7062251	0.7978157587	-4.31289513E-5	0.0033772046
7062500	0.7846095223	-6.15711994E-5	0.0033152834
7062750	0.7730239296	-4.509738E-5	0.003269836
7063000	0.7597262145	-5.95848352E-5	0.0032099011
7063250	0.7480067828	-4.37208251E-5	0.0031658303
7063500	0.7347723651	-5.99121594E-5	0.0031055682
7063750	0.7231780265	-4.40750526E-5	0.0030611431
7064000	0.7099372923	-5.98045459E-5	0.0030009886
7064250	0.6982865469	-4.37970513E-5	0.0029568415
7064500	0.685010034	-5.9678997E-5	0.0028968125
7064750	0.67351592	-4.56219953E-5	0.0028508405
7065000	0.660134147	-5.98000621E-5	0.0027906905
7065250	0.6487884484	-4.76801018E-5	0.0027426604
7065500	0.6356556246	-6.13335531E-5	0.0026809768
7065750	0.6239505928	-4.83168145E-5	0.00263231
7066000	0.6106549537	-6.07058083E-5	0.0025712542
7066250	0.5990050918	-4.78998125E-5	0.0025230044
7066500	0.5857579969	-6.04905814E-5	0.0024621638
7066750	0.5740831783	-4.78011669E-5	0.0024140126
7067000	0.5608343607	-6.07910022E-5	0.0023528716
7067250	0.5491348503	-4.68326462E-5	0.002305689
7067500	0.5359809127	-6.01229023E-5	0.0022452161
7067750	0.5242819765	-4.82271366E-5	0.0021966389
7068000	0.5110154904	-6.09927773E-5	0.0021352962
7068250	0.4993615648	-4.69178401E-5	0.0020880283
7068500	0.486127633	-6.17774585E-5	0.0020259009
7068750	0.4744332022	-4.64156442E-5	0.0019791352
7069000	0.4612557655	-6.17998779E-5	0.0019169853
7069250	0.4495135856	-4.68774851E-5	0.0018697579
7069500	0.4368702678	-5.74415348E-5	0.0018119663
7069750	0.4248989274	-5.15407329E-5	0.0017600756
7070000	0.4120002555	-5.61277544E-5	0.0017035978
7070251	0.399968533	-5.06798256E-5	0.001652568
7070500	0.3870770168	-5.78764724E-5	0.0015943415
7070751	0.375084916	-5.11640859E-5	0.0015428274
7071000	0.362129484	-5.75312127E-5	0.0014849462
7071250	0.3502021823	-5.02314364E-5	0.0014343648
7071500	0.3372844284	-5.75939872E-5	0.0013764208
7071750	0.3252481563	-5.01417585E-5	0.0013259291
7072000	0.3124038151	-5.75356966E-5	0.0012680434
7072250	0.3003693981	-5.10385369E-5	0.0012166548
7072500	0.2874185599	-5.88405092E-5	0.0011574643
7072750	0.2754633421	-5.08726329E-5	0.0011062417
7073000	0.2625549525	-5.73608248E-5	0.0010485309
7073250	0.250805661	-5.27065448E-5	9.954743E-4
7073500	0.2383148224	-4.58148027E-5	9.493095E-4
7073750	0.2259382107	-5.48005224E-5	8.941589814E-4
7074000	0.2133494885	-5.54192995E-5	8.383896819E-4
7074250	0.2010794621	-3.53224952E-5	8.027171867E-4
7074500	0.1884603501	-2.33505034E-5	7.790166833E-4
7074750	0.1761280863	-2.16600761E-5	7.570066072E-4
7075000	0.1635566793	-2.6067742E-5	7.305888652E-4
7075250	0.1512623145	-2.63681628E-5	7.038707024E-4
7075501	0.1385886951	-3.34258089E-5	6.700948935E-4
7075750	0.1263610731	-3.40759732E-5	6.356689202E-4
7076000	0.1136829925	-3.79455721E-5	5.973733481E-4
7076250	0.1014585949	-4.1312975E-5	5.557103731E-4
7076500	0.088051649	-4.36535667E-5	5.117068064E-4
7076750	0.0768532216	-4.66532905E-5	4.647035159E-4
7077000	0.064610979	-4.78235863E-5	4.165299295E-4
7077250	0.0519496692	-4.78325541E-5	3.683473754E-4
7077500	0.0396108484	-4.24294642E-5	3.255679112E-4
7077750	0.0270796936	-4.3765664E-5	2.814522472E-4
7078000	0.0148654407	-3.52552369E-5	2.458470104E-4
7078250	0.0022573434	-3.05830213E-5	2.14913989E-4
