Acquisition Time (ms)	Shunt Voltage (V)	Sample Voltage (V)	Integrated Sample Voltage (V)		
milliseconds	Volts	Volts	Volts		
5.1092500E+6	7.8706036E-3	414.1043099E-9	414.1043099E-9
5.1095000E+6	20.0360694E-3	858.0084828E-9	1.2721128E-6
5.1097500E+6	32.4458109E-3	409.6204293E-9	1.6817332E-6
5.1100000E+6	44.7282766E-3	1.2570739E-6	2.9388071E-6
5.1102500E+6	57.0678476E-3	1.0059765E-6	3.9447836E-6
5.1105000E+6	69.3445295E-3	992.5248989E-9	4.9373085E-6
5.1107500E+6	81.6985691E-3	1.2615577E-6	6.1988662E-6
5.1110000E+6	93.9432164E-3	1.8310106E-6	8.0298768E-6
5.1112500E+6	106.3289464E-3	1.1808479E-6	9.2107247E-6
5.1115000E+6	118.5734953E-3	979.0732573E-9	10.1897979E-6
5.1117500E+6	133.5455671E-3	849.0407218E-9	11.0388387E-6
5.1120000E+6	143.3541538E-3	1.2705255E-6	12.3093642E-6
5.1122500E+6	155.6188517E-3	620.3628145E-9	12.9297270E-6
5.1125000E+6	167.2930210E-3	2.1314306E-6	15.0611575E-6
5.1127500E+6	180.3249333E-3	2.2838825E-6	17.3450400E-6
5.1130000E+6	191.7631385E-3	1.8354944E-6	19.1805345E-6
5.1132500E+6	204.6548947E-3	3.2479168E-6	22.4284513E-6
5.1135000E+6	216.4235026E-3	4.2523060E-6	26.6807573E-6
5.1137500E+6	229.1914462E-3	5.1266628E-6	31.8074201E-6
5.1140000E+6	241.0533442E-3	6.5570206E-6	38.3644407E-6
5.1142500E+6	253.8337441E-3	5.7902771E-6	44.1547178E-6
5.1145000E+6	265.6725847E-3	7.5076033E-6	51.6623211E-6
5.1147500E+6	278.5184467E-3	7.1713123E-6	58.8336334E-6
5.1150000E+6	290.3782246E-3	8.5075087E-6	67.3411420E-6
5.1152500E+6	303.1662661E-3	10.7225457E-6	78.0636877E-6
5.1155000E+6	314.9842136E-3	14.0809722E-6	92.1446599E-6
5.1157500E+6	327.7692515E-3	46.0779437E-6	138.2226036E-6
5.1160000E+6	339.6071203E-3	66.4033741E-6	204.6259777E-6
5.1162500E+6	352.4478143E-3	80.8728566E-6	285.4988343E-6
5.1165000E+6	364.3191209E-3	84.0608957E-6	369.5597300E-6
5.1167500E+6	377.0586180E-3	83.1641196E-6	452.7238496E-6
5.1170000E+6	388.7315063E-3	84.0877990E-6	536.8116486E-6
5.1172500E+6	401.3817328E-3	85.4733181E-6	622.2849666E-6
5.1175000E+6	413.5630791E-3	86.5808365E-6	708.8658032E-6
5.1177500E+6	425.9140438E-3	85.5540279E-6	794.4198311E-6
5.1180000E+6	437.4953205E-3	85.6661249E-6	880.0859560E-6
5.1182500E+6	450.5568718E-3	85.9396416E-6	966.0255976E-6
5.1185000E+6	462.1629287E-3	86.6660303E-6	1.0526916E-3
5.1187500E+6	475.2783251E-3	86.4194168E-6	1.1391110E-3
5.1190000E+6	486.2408918E-3	86.7422562E-6	1.2258533E-3
5.1192500E+6	498.8656756E-3	87.5583225E-6	1.3134116E-3
5.1195000E+6	510.7491735E-3	88.5582279E-6	1.4019699E-3
5.1197500E+6	523.4850927E-3	87.6793873E-6	1.4896492E-3
5.1200000E+6	535.4081683E-3	88.5492601E-6	1.5781985E-3
5.1202500E+6	548.1668358E-3	88.3160983E-6	1.6665146E-3
5.1205000E+6	560.1196830E-3	88.8362285E-6	1.7553508E-3
5.1207500E+6	572.8595335E-3	89.0783580E-6	1.8444292E-3
5.1210000E+6	584.7489504E-3	89.7061013E-6	1.9341353E-3
5.1212510E+6	597.4910536E-3	90.4952643E-6	2.0246305E-3
5.1215000E+6	609.3574572E-3	90.8225875E-6	2.1154531E-3
5.1217500E+6	622.1293320E-3	89.8764887E-6	2.2053296E-3
5.1220000E+6	634.0370359E-3	91.6386538E-6	2.2969683E-3
5.1222500E+6	646.7316548E-3	90.7867165E-6	2.3877550E-3
5.1225000E+6	658.7075594E-3	91.3337499E-6	2.4790887E-3
5.1227500E+6	671.4361903E-3	92.7596239E-6	2.5718484E-3
5.1230010E+6	683.3700880E-3	92.0735902E-6	2.6639220E-3
5.1232500E+6	696.0811828E-3	93.0376245E-6	2.7569596E-3
5.1235000E+6	707.9496624E-3	93.7640132E-6	2.8507236E-3
5.1237500E+6	720.7512646E-3	93.2842379E-6	2.9440078E-3
5.1240000E+6	732.6251774E-3	94.5800794E-6	3.0385879E-3
5.1242500E+6	745.3534107E-3	94.5486923E-6	3.1331366E-3
5.1245000E+6	757.2491000E-3	94.7190797E-6	3.2278557E-3
5.1247500E+6	769.9808229E-3	94.2841433E-6	3.3221398E-3
5.1250000E+6	781.6606461E-3	94.4859179E-6	3.4166257E-3
5.1252500E+6	793.9946932E-3	95.8983403E-6	3.5125241E-3
5.1255010E+6	806.2176932E-3	95.7145012E-6	3.6082386E-3
5.1257500E+6	818.6305421E-3	94.7639185E-6	3.7030025E-3
5.1260000E+6	830.8118000E-3	97.2210851E-6	3.8002236E-3
5.1262500E+6	843.1983670E-3	96.8534069E-6	3.8970770E-3
5.1265000E+6	855.4518011E-3	97.4901179E-6	3.9945671E-3
5.1267500E+6	867.8687139E-3	97.7187958E-6	4.0922859E-3
5.1270000E+6	880.1735194E-3	97.9967964E-6	4.1902827E-3
5.1272500E+6	891.9627996E-3	98.5124427E-6	4.2887952E-3
5.1275000E+6	904.4491941E-3	98.5393459E-6	4.3873345E-3
5.1277500E+6	916.4871597E-3	99.2164119E-6	4.4865509E-3
5.1280000E+6	929.1201593E-3	99.7365420E-6	4.5862875E-3
5.1282500E+6	941.1228761E-3	99.1043149E-6	4.6853918E-3
5.1285000E+6	953.7589236E-3	99.7768970E-6	4.7851687E-3
5.1287500E+6	965.8201234E-3	100.0683492E-6	4.8852370E-3
5.1290000E+6	978.4272386E-3	100.4763823E-6	4.9857134E-3
5.1292500E+6	990.2981035E-3	101.2789969E-6	5.0869924E-3
5.1295000E+6	1.0031099E+0	101.9560629E-6	5.1889485E-3
5.1297500E+6	1.0151267E+0	101.0951578E-6	5.2900436E-3
5.1300000E+6	1.0277750E+0	102.3461605E-6	5.3923898E-3
5.1302500E+6	1.0398047E+0	102.3416766E-6	5.4947315E-3
5.1305000E+6	1.0524310E+0	102.8214518E-6	5.5975529E-3
5.1307500E+6	1.0645028E+0	103.0546136E-6	5.7006075E-3
5.1310000E+6	1.0767340E+0	103.5343889E-6	5.8041419E-3
5.1312500E+6	1.0882618E+0	104.4401327E-6	5.9085820E-3
5.1315000E+6	1.1013738E+0	103.8482605E-6	6.0124303E-3
5.1317500E+6	1.1129629E+0	105.2831023E-6	6.1177134E-3
5.1320000E+6	1.1259880E+0	103.8930993E-6	6.2216065E-3
5.1322500E+6	1.1375657E+0	105.5117802E-6	6.3271183E-3
5.1325000E+6	1.1507198E+0	105.5341996E-6	6.4326525E-3
5.1327500E+6	1.1618161E+0	105.9915554E-6	6.5386440E-3
5.1330000E+6	1.1748727E+0	105.8480712E-6	6.6444921E-3
5.1332500E+6	1.1864411E+0	106.3233625E-6	6.7508155E-3
5.1335000E+6	1.1995640E+0	107.4981392E-6	6.8583136E-3
5.1337500E+6	1.2146593E+0	107.5160748E-6	6.9658297E-3
5.1340000E+6	1.2241931E+0	107.9734306E-6	7.0738031E-3
5.1342500E+6	1.2357205E+0	107.8658174E-6	7.1816689E-3
5.1345000E+6	1.2488569E+0	107.9913661E-6	7.2896603E-3
5.1347500E+6	1.2604506E+0	108.5249479E-6	7.3981852E-3
5.1350000E+6	1.2730021E+0	109.0674974E-6	7.5072527E-3
5.1352500E+6	1.2848208E+0	109.0809491E-6	7.6163337E-3
5.1355000E+6	1.2977029E+0	109.8252732E-6	7.7261590E-3
5.1357500E+6	1.3094837E+0	109.8790798E-6	7.8360380E-3
5.1360000E+6	1.3223556E+0	109.9732413E-6	7.9460113E-3
5.1362500E+6	1.3341662E+0	110.0763706E-6	8.0560877E-3
5.1365000E+6	1.3470122E+0	111.0628243E-6	8.1671505E-3
5.1367500E+6	1.3588461E+0	110.4081777E-6	8.2775587E-3
5.1370000E+6	1.3716809E+0	111.6277932E-6	8.3891865E-3
5.1372500E+6	1.3835740E+0	111.1614696E-6	8.5003479E-3
5.1375000E+6	1.3959348E+0	112.8787959E-6	8.6132267E-3
5.1377500E+6	1.4079420E+0	114.1970568E-6	8.7274238E-3
5.1380000E+6	1.4204454E+0	113.7352171E-6	8.8411590E-3
5.1382500E+6	1.4326298E+0	113.2464741E-6	8.9544055E-3
5.1385000E+6	1.4451493E+0	112.9639896E-6	9.0673695E-3
5.1387500E+6	1.4572923E+0	114.8023806E-6	9.1821718E-3
5.1390000E+6	1.4698643E+0	113.8607657E-6	9.2960326E-3
5.1395000E+6	1.4680708E+0	114.5288639E-6	9.4105615E-3
5.1397500E+6	1.4560164E+0	114.4616057E-6	9.5250231E-3
5.1400000E+6	1.4436261E+0	113.2464741E-6	9.6382695E-3
5.1402500E+6	1.4316662E+0	113.8293786E-6	9.7520989E-3
5.1405000E+6	1.4195691E+0	113.1209254E-6	9.8652198E-3
5.1407500E+6	1.4070639E+0	112.7891183E-6	9.9780090E-3
5.1410000E+6	1.3946652E+0	112.1120523E-6	10.0901210E-3
5.1412500E+6	1.3823632E+0	112.8339571E-6	10.2029550E-3
5.1415000E+6	1.3702112E+0	111.6143416E-6	10.3145693E-3
5.1417500E+6	1.3576798E+0	111.0359210E-6	10.4256052E-3
5.1420000E+6	1.3455604E+0	111.7533419E-6	10.5373586E-3
5.1422510E+6	1.3329964E+0	110.1705320E-6	10.6475291E-3
5.1425000E+6	1.3208396E+0	110.7175655E-6	10.7582467E-3
5.1427500E+6	1.3083584E+0	110.2826291E-6	10.8685293E-3
5.1430000E+6	1.2969652E+0	109.7266279E-6	10.9782559E-3
5.1432500E+6	1.2840537E+0	109.2154655E-6	11.0874714E-3
5.1435000E+6	1.2723611E+0	108.6773998E-6	11.1961488E-3
5.1437500E+6	1.2593708E+0	109.2244332E-6	11.3053732E-3
5.1440000E+6	1.2476532E+0	107.4308810E-6	11.4128041E-3
5.1442510E+6	1.2346678E+0	108.5294318E-6	11.5213335E-3
5.1445000E+6	1.2230273E+0	107.1618482E-6	11.6284954E-3
5.1447500E+6	1.2100272E+0	106.4623628E-6	11.7349578E-3
5.1450000E+6	1.1983279E+0	107.0587190E-6	11.8420165E-3
5.1452500E+6	1.1853986E+0	106.3637175E-6	11.9483802E-3
5.1455000E+6	1.1737104E+0	106.0363942E-6	12.0544166E-3
5.1457500E+6	1.1607205E+0	105.9556843E-6	12.1603723E-3
5.1460010E+6	1.1489905E+0	105.3727799E-6	12.2657451E-3
5.1462500E+6	1.1360411E+0	105.4669414E-6	12.3712120E-3
5.1465000E+6	1.1243378E+0	105.1934246E-6	12.4764054E-3
5.1467500E+6	1.1113471E+0	104.0948739E-6	12.5805003E-3
5.1470000E+6	1.1003111E+0	103.7854862E-6	12.6842858E-3
5.1472500E+6	1.0871845E+0	103.7540990E-6	12.7880399E-3
5.1475000E+6	1.0756344E+0	103.2832915E-6	12.8913232E-3
5.1477500E+6	1.0625046E+0	103.3819369E-6	12.9947051E-3
5.1480000E+6	1.0509532E+0	102.3865154E-6	13.0970916E-3
5.1482500E+6	1.0383090E+0	102.5748384E-6	13.1996665E-3
5.1485000E+6	1.0265786E+0	102.1040310E-6	13.3017705E-3
5.1487500E+6	1.0136194E+0	101.2476098E-6	13.4030181E-3
5.1490000E+6	1.0019103E+0	100.9740931E-6	13.5039922E-3
5.1492500E+6	987.8812167E-3	100.8754477E-6	13.6048676E-3
5.1495000E+6	977.2403950E-3	99.7320582E-6	13.7045997E-3
5.1497500E+6	964.3131691E-3	99.9607361E-6	13.8045604E-3
5.1500010E+6	952.5702249E-3	100.1266396E-6	13.9046871E-3
5.1502500E+6	940.1973511E-3	99.9383167E-6	14.0046254E-3
5.1505000E+6	928.1870810E-3	98.9653146E-6	14.1035907E-3
5.1507500E+6	915.0735839E-3	98.9159919E-6	14.2025067E-3
5.1510000E+6	903.4940741E-3	98.2165065E-6	14.3007232E-3
5.1512500E+6	890.8988853E-3	98.1268289E-6	14.3988500E-3
5.1515000E+6	878.8710349E-3	98.8621853E-6	14.4977122E-3
5.1517500E+6	866.2966950E-3	97.9923125E-6	14.5957045E-3
5.1520000E+6	854.1834170E-3	97.5170212E-6	14.6932216E-3
5.1522500E+6	841.5708687E-3	96.9924072E-6	14.7902140E-3
5.1525000E+6	829.5325498E-3	96.6830194E-6	14.8868970E-3
5.1527500E+6	816.9914710E-3	95.9386952E-6	14.9828357E-3
5.1530010E+6	804.9291227E-3	95.3647585E-6	15.0782004E-3
5.1532500E+6	792.3125548E-3	95.3109519E-6	15.1735114E-3
5.1535000E+6	780.3358109E-3	95.1002096E-6	15.2686116E-3
5.1537500E+6	767.7220258E-3	93.9299167E-6	15.3625415E-3
5.1540000E+6	755.6741658E-3	94.6338860E-6	15.4571754E-3
5.1542500E+6	743.0183295E-3	93.4008188E-6	15.5505762E-3
5.1545000E+6	731.0322212E-3	93.8716263E-6	15.6444478E-3
5.1547500E+6	718.4063773E-3	93.3873672E-6	15.7378352E-3
5.1550000E+6	706.3767601E-3	93.7057227E-6	15.8315409E-3
5.1552500E+6	693.7618266E-3	93.1362699E-6	15.9246772E-3
5.1555000E+6	681.7456817E-3	92.2394938E-6	16.0169167E-3
5.1557500E+6	669.1291138E-3	91.9390738E-6	16.1088558E-3
5.1560000E+6	657.1139849E-3	92.0511708E-6	16.2009069E-3
5.1562500E+6	645.0091436E-3	91.8718156E-6	16.2927788E-3
5.1565000E+6	632.7918860E-3	90.6477162E-6	16.3834265E-3
5.1567500E+6	620.4562929E-3	91.0333299E-6	16.4744598E-3
5.1570000E+6	608.0876154E-3	90.7777487E-6	16.5652376E-3
5.1572500E+6	595.9086986E-3	89.8316499E-6	16.6550692E-3
5.1575000E+6	583.4454058E-3	89.3339392E-6	16.7444031E-3
5.1577500E+6	571.1345488E-3	89.0873258E-6	16.8334905E-3
5.1580000E+6	558.8093360E-3	88.9841965E-6	16.9224747E-3
5.1582500E+6	546.5066949E-3	88.6479055E-6	17.0111226E-3
5.1585000E+6	534.1537424E-3	88.4461309E-6	17.0995687E-3
5.1587500E+6	521.8215947E-3	89.1187129E-6	17.1886874E-3
5.1590000E+6	509.5000924E-3	87.4776127E-6	17.2761650E-3
5.1592500E+6	497.8058250E-3	87.9349685E-6	17.3641000E-3
5.1595010E+6	485.1928792E-3	87.5941935E-6	17.4516942E-3
5.1597500E+6	473.4656600E-3	87.5493547E-6	17.5392435E-3
5.1600000E+6	460.5606082E-3	86.5135783E-6	17.6257571E-3
5.1602500E+6	448.7346657E-3	85.9261900E-6	17.7116833E-3
5.1605000E+6	435.8976380E-3	86.2535133E-6	17.7979368E-3
5.1607500E+6	424.1433416E-3	85.6481894E-6	17.8835850E-3
5.1610000E+6	411.2947409E-3	85.8544479E-6	17.9694395E-3
5.1612500E+6	399.4346539E-3	84.6751873E-6	18.0541146E-3
5.1615000E+6	386.6309756E-3	84.7379616E-6	18.1388526E-3
5.1617500E+6	374.8358648E-3	83.2179261E-6	18.2220705E-3
5.1620000E+6	362.0005598E-3	83.1013453E-6	18.3051719E-3
5.1622500E+6	350.2183470E-3	83.0340870E-6	18.3882060E-3
5.1625000E+6	337.3669194E-3	78.4963999E-6	18.4667024E-3
5.1627500E+6	325.4655762E-3	55.3550925E-6	18.5220575E-3
5.1630000E+6	312.7565133E-3	12.0901292E-6	18.5341476E-3
5.1632500E+6	300.8740313E-3	9.8212857E-6	18.5439689E-3
5.1635000E+6	288.4474891E-3	8.3147018E-6	18.5522836E-3
5.1637500E+6	276.8688186E-3	6.4314720E-6	18.5587150E-3
5.1640000E+6	263.4972276E-3	6.5211496E-6	18.5652362E-3
5.1642500E+6	252.3613761E-3	5.7992448E-6	18.5710354E-3
5.1645000E+6	239.2198302E-3	4.9338559E-6	18.5759693E-3
5.1647500E+6	227.6490663E-3	3.7545953E-6	18.5797239E-3
5.1650000E+6	214.5209927E-3	3.7456275E-6	18.5834695E-3
5.1652500E+6	203.3270116E-3	3.6559499E-6	18.5871255E-3
5.1655000E+6	190.3827797E-3	2.7995288E-6	18.5899250E-3
5.1657500E+6	178.7539745E-3	1.1001380E-6	18.5910251E-3
5.1660000E+6	165.7067347E-3	1.2077512E-6	18.5922329E-3
5.1662500E+6	154.1329672E-3	1.7637524E-6	18.5939966E-3
5.1665000E+6	141.0673079E-3	1.8310106E-6	18.5958277E-3
5.1667500E+6	129.4562596E-3	1.7054619E-6	18.5975331E-3
5.1670000E+6	116.4623790E-3	1.2705255E-6	18.5988036E-3
5.1672500E+6	104.8122390E-3	1.2884610E-6	18.6000921E-3
5.1675000E+6	90.8348050E-3	804.2019164E-9	18.6008963E-3
5.1677500E+6	80.1792564E-3	284.0717744E-9	18.6011804E-3
5.1680000E+6	67.1646791E-3	1.5799132E-6	18.6027603E-3
5.1682500E+6	55.5518157E-3	584.4917702E-9	18.6033448E-3
5.1685000E+6	42.5048284E-3	140.5875973E-9	18.6034854E-3
5.1687500E+6	30.9456153E-3	687.6210225E-9	18.6041730E-3
5.1690000E+6	17.9026417E-3	373.7493851E-9	18.6045467E-3
5.1692500E+6	6.2810355E-3	777.2986332E-9	18.6053240E-3
