Acquisition Time (ms)	Shunt Voltage (V)	Sample Voltage (V)	Integrated Sample Voltage (V)		
milliseconds	Volts	Volts	Volts		
2.1940000E+6	225.9126412E-3	85.9799966E-6	85.9799966E-6
2.1942500E+6	238.8626154E-3	85.8499640E-6	171.8299606E-6
2.1945000E+6	250.4931433E-3	86.1010613E-6	257.9310219E-6
2.1947500E+6	263.1374508E-3	85.8813512E-6	343.8123731E-6
2.1950000E+6	275.2025378E-3	86.8095145E-6	430.6218875E-6
2.1952500E+6	287.7421589E-3	86.7691595E-6	517.3910471E-6
2.1955000E+6	299.8764625E-3	87.4327738E-6	604.8238209E-6
2.1957500E+6	312.4519067E-3	87.6614518E-6	692.4852727E-6
2.1960000E+6	324.5948238E-3	87.6614518E-6	780.1467244E-6
2.1962500E+6	337.2265425E-3	87.2265153E-6	867.3732398E-6
2.1965000E+6	349.3708730E-3	88.1905497E-6	955.5637895E-6
2.1967500E+6	362.0400491E-3	87.4910643E-6	1.0430549E-3
2.1970000E+6	374.1054894E-3	89.0335192E-6	1.1320884E-3
2.1972500E+6	386.6333167E-3	89.8451016E-6	1.2219335E-3
2.1975000E+6	398.8183734E-3	89.9437469E-6	1.3118772E-3
2.1977500E+6	411.4889630E-3	88.8093252E-6	1.4006865E-3
2.1980000E+6	423.2418900E-3	89.3608425E-6	1.4900474E-3
2.1982500E+6	435.5079130E-3	90.8584586E-6	1.5809058E-3
2.1985000E+6	447.9287128E-3	90.0379084E-6	1.6709438E-3
2.1987500E+6	460.1919972E-3	90.4011028E-6	1.7613449E-3
2.1990000E+6	472.7405409E-3	91.1005881E-6	1.8524454E-3
2.1992500E+6	484.8810727E-3	90.3338446E-6	1.9427793E-3
2.1995000E+6	497.4491845E-3	91.1947496E-6	2.0339740E-3
2.1997500E+6	509.6857009E-3	91.2889111E-6	2.1252630E-3
2.2000000E+6	521.9121904E-3	91.4279114E-6	2.2166909E-3
2.2002500E+6	533.5807499E-3	92.4636878E-6	2.3091546E-3
2.2005000E+6	546.5769717E-3	92.7327206E-6	2.4018873E-3
2.2007500E+6	558.2323681E-3	92.3964296E-6	2.4942837E-3
2.2010000E+6	571.2979832E-3	93.2528508E-6	2.5875366E-3
2.2012500E+6	583.0921664E-3	92.8044627E-6	2.6803410E-3
2.2015000E+6	596.0171838E-3	92.7685917E-6	2.7731096E-3
2.2017500E+6	607.7633526E-3	93.6653678E-6	2.8667750E-3
2.2020000E+6	620.8000354E-3	93.5353353E-6	2.9603103E-3
2.2022500E+6	632.6678525E-3	94.8311767E-6	3.0551415E-3
2.2025000E+6	645.1859179E-3	95.3244036E-6	3.1504659E-3
2.2027500E+6	656.6825620E-3	95.3557908E-6	3.2458217E-3
2.2030000E+6	669.8718131E-3	95.1136612E-6	3.3409353E-3
2.2032500E+6	681.4703167E-3	96.3153412E-6	3.4372507E-3
2.2035000E+6	694.6047510E-3	96.3960510E-6	3.5336467E-3
2.2037500E+6	706.2013552E-3	96.0328567E-6	3.6296796E-3
2.2040000E+6	719.3298705E-3	96.8937618E-6	3.7265734E-3
2.2042500E+6	730.9532868E-3	97.9116027E-6	3.8244850E-3
2.2045000E+6	744.0502637E-3	96.9610200E-6	3.9214460E-3
2.2047500E+6	755.6648014E-3	97.7770862E-6	4.0192231E-3
2.2050000E+6	768.8388134E-3	98.3330874E-6	4.1175561E-3
2.2052500E+6	780.0736531E-3	97.9160865E-6	4.2154722E-3
2.2055000E+6	793.0382039E-3	98.5483137E-6	4.3140205E-3
2.2057500E+6	804.7212517E-3	99.0639600E-6	4.4130845E-3
2.2060000E+6	817.7756473E-3	98.7680238E-6	4.5118525E-3
2.2062500E+6	829.4318830E-3	100.4674146E-6	4.6123199E-3
2.2065000E+6	842.4354372E-3	99.6872194E-6	4.7120072E-3
2.2067500E+6	854.1786907E-3	100.6736731E-6	4.8126808E-3
2.2070000E+6	867.2244728E-3	100.7992217E-6	4.9134801E-3
2.2072500E+6	878.9500577E-3	100.8350928E-6	5.0143152E-3
2.2075000E+6	891.9147852E-3	102.0681599E-6	5.1163833E-3
2.2077500E+6	903.6923157E-3	101.6377074E-6	5.2180210E-3
2.2080000E+6	916.6363268E-3	101.8529337E-6	5.3198740E-3
2.2082500E+6	928.4146966E-3	102.3102895E-6	5.4221842E-3
2.2085000E+6	941.4684296E-3	102.6331289E-6	5.5248174E-3
2.2087500E+6	953.1620344E-3	102.7586775E-6	5.6275761E-3
2.2090000E+6	966.2237624E-3	104.4401327E-6	5.7320162E-3
2.2092500E+6	977.9331364E-3	103.3729692E-6	5.8353892E-3
2.2095000E+6	990.9160625E-3	104.4535844E-6	5.9398427E-3
2.2097500E+6	1.0026537E+0	104.7091656E-6	6.0445519E-3
2.2100000E+6	1.0156519E+0	104.7405527E-6	6.1492925E-3
2.2102500E+6	1.0274072E+0	104.8302303E-6	6.2541227E-3
2.2105000E+6	1.0404737E+0	104.6060363E-6	6.3587287E-3
2.2107500E+6	1.0521737E+0	106.1709106E-6	6.4648996E-3
2.2110000E+6	1.0646211E+0	106.0408781E-6	6.5709405E-3
2.2112500E+6	1.0766469E+0	106.3995885E-6	6.6773401E-3
2.2115000E+6	1.0893858E+0	105.8032324E-6	6.7831433E-3
2.2117500E+6	1.1014533E+0	108.0720760E-6	6.8912154E-3
2.2120000E+6	1.1141636E+0	107.3412034E-6	6.9985566E-3
2.2122500E+6	1.1261854E+0	107.5384942E-6	7.1060951E-3
2.2125000E+6	1.1389672E+0	108.4890768E-6	7.2145842E-3
2.2127510E+6	1.1509710E+0	108.6818837E-6	7.3232661E-3
2.2130000E+6	1.1637521E+0	109.1168201E-6	7.4323829E-3
2.2132500E+6	1.1756708E+0	109.2334010E-6	7.5416163E-3
2.2135000E+6	1.1884318E+0	109.9732413E-6	7.6515895E-3
2.2137500E+6	1.2033391E+0	110.2646935E-6	7.7618542E-3
2.2140000E+6	1.2132271E+0	109.9956607E-6	7.8718499E-3
2.2142500E+6	1.2251950E+0	110.5471780E-6	7.9823971E-3
2.2145000E+6	1.2379457E+0	111.6591804E-6	8.0940562E-3
2.2147510E+6	1.2499483E+0	111.1569858E-6	8.2052132E-3
2.2150000E+6	1.2627565E+0	111.0314371E-6	8.3162447E-3
2.2152500E+6	1.2746830E+0	111.9461487E-6	8.4281908E-3
2.2155000E+6	1.2874773E+0	111.8206001E-6	8.5400114E-3
2.2157500E+6	1.2994648E+0	112.8518926E-6	8.6528633E-3
2.2160000E+6	1.3122306E+0	113.1433448E-6	8.7660067E-3
2.2162500E+6	1.3239776E+0	113.9011206E-6	8.8799078E-3
2.2165000E+6	1.3364614E+0	113.5872490E-6	8.9934950E-3
2.2167500E+6	1.3487100E+0	114.0177015E-6	9.1075127E-3
2.2170000E+6	1.3611274E+0	115.2148976E-6	9.2227276E-3
2.2172500E+6	1.3734753E+0	114.2732827E-6	9.3370009E-3
2.2175000E+6	1.3859083E+0	114.9279293E-6	9.4519288E-3
2.2177500E+6	1.3982166E+0	115.3494141E-6	9.5672782E-3
2.2180000E+6	1.4105485E+0	115.2283493E-6	9.6825066E-3
2.2182500E+6	1.4230532E+0	115.8426409E-6	9.7983492E-3
2.2185000E+6	1.4354520E+0	116.8559979E-6	9.9152052E-3
2.2187500E+6	1.4478052E+0	117.7124191E-6	10.0329177E-3
2.2190000E+6	1.4601465E+0	117.6765481E-6	10.1505942E-3
2.2192500E+6	1.4725559E+0	117.7438063E-6	10.2683380E-3
2.2195000E+6	1.4835678E+0	118.5509048E-6	10.3868889E-3
2.2197500E+6	1.4766886E+0	117.7348385E-6	10.5046238E-3
2.2200000E+6	1.4648762E+0	118.1025167E-6	10.6227263E-3
2.2202500E+6	1.4518168E+0	117.3268054E-6	10.7400531E-3
2.2205000E+6	1.4401064E+0	116.4300293E-6	10.8564831E-3
2.2207500E+6	1.4273392E+0	117.6003221E-6	10.9740834E-3
2.2210000E+6	1.4153339E+0	116.6811266E-6	11.0907646E-3
2.2212500E+6	1.4025757E+0	117.2954182E-6	11.2080600E-3
2.2215010E+6	1.3905262E+0	115.6632857E-6	11.3237233E-3
2.2217500E+6	1.3778210E+0	114.9144776E-6	11.4386377E-3
2.2220000E+6	1.3658366E+0	114.4347024E-6	11.5530724E-3
2.2222510E+6	1.3529808E+0	114.2687989E-6	11.6673412E-3
2.2225000E+6	1.3410610E+0	113.2733774E-6	11.7806146E-3
2.2227500E+6	1.3282542E+0	114.0849597E-6	11.8946996E-3
2.2230000E+6	1.3163023E+0	112.5380210E-6	12.0072376E-3
2.2232500E+6	1.3035151E+0	112.5694081E-6	12.1198070E-3
2.2235000E+6	1.2915298E+0	111.5784705E-6	12.2313855E-3
2.2237510E+6	1.2790812E+0	111.7847290E-6	12.3431702E-3
2.2240000E+6	1.2673320E+0	111.2197601E-6	12.4543900E-3
2.2242500E+6	1.2544036E+0	111.7398902E-6	12.5661298E-3
2.2245000E+6	1.2427168E+0	112.2465687E-6	12.6783764E-3
2.2247500E+6	1.2296329E+0	110.6906622E-6	12.7890671E-3
2.2250000E+6	1.2179412E+0	109.9553058E-6	12.8990224E-3
2.2252500E+6	1.2048689E+0	110.2646935E-6	13.0092871E-3
2.2255000E+6	1.1931838E+0	109.3320464E-6	13.1186191E-3
2.2257500E+6	1.1801107E+0	108.7356903E-6	13.2273548E-3
2.2260000E+6	1.1689268E+0	109.0585297E-6	13.3364133E-3
2.2262500E+6	1.1558496E+0	108.9329810E-6	13.4453463E-3
2.2265000E+6	1.1441806E+0	108.3276571E-6	13.5536740E-3
2.2267510E+6	1.1310477E+0	106.7852022E-6	13.6604592E-3
2.2270000E+6	1.1194161E+0	106.8883315E-6	13.7673475E-3
2.2272500E+6	1.1063741E+0	106.3233625E-6	13.8736709E-3
2.2275000E+6	1.0946601E+0	106.6596536E-6	13.9803305E-3
2.2277500E+6	1.0814992E+0	106.7403634E-6	14.0870709E-3
2.2280000E+6	1.0699424E+0	106.1933300E-6	14.1932642E-3
2.2282500E+6	1.0567886E+0	105.5880061E-6	14.2988522E-3
2.2285000E+6	1.0453860E+0	104.6643267E-6	14.4035166E-3
2.2287500E+6	1.0325663E+0	104.0186479E-6	14.5075352E-3
2.2290000E+6	1.0206358E+0	104.6374235E-6	14.6121726E-3
2.2292500E+6	1.0077609E+0	104.3414873E-6	14.7165141E-3
2.2295000E+6	994.8525366E-3	104.1755838E-6	14.8206897E-3
2.2297500E+6	983.0034483E-3	103.7227118E-6	14.9244124E-3
2.2300000E+6	971.1488385E-3	103.7675506E-6	15.0281800E-3
2.2302500E+6	958.2886649E-3	103.0456459E-6	15.1312256E-3
2.2305000E+6	946.3911204E-3	102.2744184E-6	15.2335000E-3
2.2307500E+6	933.4337254E-3	102.1129987E-6	15.3356130E-3
2.2310000E+6	921.6115817E-3	102.0502244E-6	15.4376633E-3
2.2312500E+6	908.7074133E-3	101.4987071E-6	15.5391620E-3
2.2315000E+6	896.8752868E-3	100.9202865E-6	15.6400822E-3
2.2317500E+6	883.9974446E-3	101.0817062E-6	15.7411640E-3
2.2320000E+6	872.3719081E-3	100.7364474E-6	15.8419004E-3
2.2322500E+6	859.3641576E-3	101.6242557E-6	15.9435247E-3
2.2325000E+6	847.6160011E-3	99.2791862E-6	16.0428038E-3
2.2327500E+6	835.0989516E-3	100.0324782E-6	16.1428363E-3
2.2330000E+6	822.9327561E-3	100.5167373E-6	16.2433531E-3
2.2332500E+6	810.4749406E-3	99.1401859E-6	16.3424932E-3
2.2335000E+6	798.1852417E-3	98.1447644E-6	16.4406380E-3
2.2337500E+6	785.7729669E-3	98.5707331E-6	16.5392087E-3
2.2340000E+6	773.5103010E-3	97.6515376E-6	16.6368603E-3
2.2342500E+6	760.9595928E-3	97.0865686E-6	16.7339468E-3
2.2345000E+6	748.7801018E-3	97.7726024E-6	16.8317194E-3
2.2347500E+6	736.2461788E-3	97.3286982E-6	16.9290481E-3
2.2350000E+6	724.0343542E-3	97.6066988E-6	17.0266548E-3
2.2352500E+6	711.5290543E-3	96.0463084E-6	17.1227012E-3
2.2355000E+6	699.2746042E-3	95.7145012E-6	17.2184157E-3
2.2357500E+6	686.7922293E-3	95.7996949E-6	17.3142154E-3
2.2360000E+6	674.5583632E-3	95.1943711E-6	17.4094097E-3
2.2362500E+6	662.0992225E-3	95.1002096E-6	17.5045099E-3
2.2365000E+6	649.7868636E-3	95.5530815E-6	17.6000630E-3
2.2367500E+6	637.8746984E-3	94.9791448E-6	17.6950422E-3
2.2370000E+6	625.0550742E-3	94.9163705E-6	17.7899585E-3
2.2372500E+6	612.4290537E-3	93.9164651E-6	17.8838750E-3
2.2375000E+6	600.5875628E-3	93.1676571E-6	17.9770427E-3
2.2377500E+6	588.4577647E-3	93.4546254E-6	18.0704973E-3
2.2380000E+6	575.8949977E-3	93.1586893E-6	18.1636560E-3
2.2382500E+6	563.7904215E-3	92.7416884E-6	18.2563977E-3
2.2385000E+6	551.1803468E-3	92.3740102E-6	18.3487717E-3
2.2387500E+6	539.0054055E-3	92.0018481E-6	18.4407735E-3
2.2390000E+6	526.4001013E-3	91.7866218E-6	18.5325601E-3
2.2392500E+6	514.1934448E-3	91.8045574E-6	18.6243647E-3
2.2395000E+6	501.6947265E-3	91.5669117E-6	18.7159316E-3
2.2397500E+6	489.5260133E-3	90.3517801E-6	18.8062834E-3
2.2400000E+6	476.9330330E-3	90.7956843E-6	18.8970791E-3
2.2402500E+6	464.7062785E-3	90.8898457E-6	18.9879689E-3
2.2405000E+6	452.1881688E-3	90.7284260E-6	19.0786973E-3
2.2407500E+6	440.0011686E-3	89.7419723E-6	19.1684393E-3
2.2410000E+6	427.4605315E-3	89.8226822E-6	19.2582620E-3
2.2412500E+6	415.2602799E-3	89.5222622E-6	19.3477843E-3
2.2415000E+6	402.7188919E-3	89.2532293E-6	19.4370375E-3
2.2417500E+6	390.4836565E-3	89.4505201E-6	19.5264880E-3
2.2420010E+6	377.9399715E-3	88.5447762E-6	19.6150328E-3
2.2422500E+6	365.8048728E-3	89.0693902E-6	19.7041022E-3
2.2425000E+6	353.2602603E-3	87.5359031E-6	19.7916381E-3
2.2427500E+6	341.7782370E-3	87.5314192E-6	19.8791695E-3
2.2430000E+6	328.8509227E-3	88.0650010E-6	19.9672345E-3
2.2432500E+6	317.1429181E-3	86.5629010E-6	20.0537974E-3
2.2435000E+6	304.1351234E-3	86.7870951E-6	20.1405845E-3
2.2437500E+6	292.4842325E-3	87.3072252E-6	20.2278917E-3
2.2440000E+6	279.4395105E-3	86.7377724E-6	20.3146295E-3
2.2442500E+6	267.6569885E-3	86.7826112E-6	20.4014121E-3
2.2445000E+6	254.7318829E-3	86.2849004E-6	20.4876970E-3
2.2447500E+6	242.9473732E-3	86.4373524E-6	20.5741344E-3
2.2450000E+6	229.9123247E-3	85.1998013E-6	20.6593342E-3
2.2452500E+6	218.1433193E-3	84.9442202E-6	20.7442784E-3
2.2455000E+6	205.1631318E-3	84.7334778E-6	20.8290119E-3
2.2457500E+6	193.2658082E-3	85.3163822E-6	20.9143282E-3
2.2460000E+6	180.8572880E-3	85.3029306E-6	20.9996312E-3
2.2462500E+6	169.3548574E-3	84.8007360E-6	21.0844319E-3
2.2465000E+6	156.1701118E-3	84.4016706E-6	21.1688336E-3
2.2467500E+6	144.5338858E-3	83.8232500E-6	21.2526568E-3
2.2470000E+6	131.4429162E-3	83.2224100E-6	21.3358792E-3
2.2472500E+6	119.9500709E-3	83.5811205E-6	21.4194604E-3
2.2475000E+6	107.1690526E-3	84.1640249E-6	21.5036244E-3
2.2477500E+6	94.2749781E-3	83.2627650E-6	21.5868871E-3
2.2480000E+6	82.4656475E-3	83.4466041E-6	21.6703337E-3
2.2482500E+6	70.6657882E-3	83.9532826E-6	21.7542870E-3
2.2485000E+6	57.7272009E-3	84.8904136E-6	21.8391774E-3
2.2487500E+6	45.9488276E-3	84.1774766E-6	21.9233549E-3
2.2490000E+6	32.9735125E-3	84.3433802E-6	22.0076983E-3
2.2492500E+6	21.2533754E-3	82.8816351E-6	22.0905799E-3
2.2495000E+6	8.2659875E-3	83.1147969E-6	22.1736947E-3
