Acquisition Time (ms)	Shunt Voltage (V)	Sample Voltage (V)	Integrated Sample Voltage (V)		
milliseconds	Volts	Volts	Volts		
7.2460000E+6	9.3427516E-3	337.8783408E-9	337.8783408E-9
7.2462500E+6	22.1856374E-3	-289.8649341E-9	48.0134067E-9
7.2465000E+6	33.9575966E-3	-249.5100093E-9	-201.4966026E-9
7.2467500E+6	46.7781113E-3	-567.8655273E-9	-769.3621298E-9
7.2470000E+6	58.5086226E-3	-401.9619475E-9	-1.1713241E-6
7.2472500E+6	71.3750818E-3	-47.7353852E-9	-1.2190595E-6
7.2475000E+6	82.6546682E-3	266.1362522E-9	-952.9232103E-9
7.2477500E+6	95.5813347E-3	82.2971503E-9	-870.6260600E-9
7.2480000E+6	107.0927618E-3	458.9431152E-9	-411.6829448E-9
7.2482500E+6	121.9592549E-3	315.4589381E-9	-96.2240066E-9
7.2485000E+6	131.6504780E-3	432.0398320E-9	335.8158254E-9
7.2487500E+6	144.7998865E-3	409.6204293E-9	745.4362547E-9
7.2490000E+6	156.0308391E-3	656.2338588E-9	1.4016701E-6
7.2492500E+6	168.9420749E-3	-527.5106024E-9	874.1595110E-9
7.2495000E+6	180.6134172E-3	884.9117660E-9	1.7590713E-6
7.2497500E+6	193.5357843E-3	615.8789339E-9	2.3749502E-6
7.2500000E+6	205.2531974E-3	270.6201328E-9	2.6455703E-6
7.2502500E+6	217.6648980E-3	239.2329690E-9	2.8848033E-6
7.2505000E+6	229.5600130E-3	1.0194282E-6	3.9042315E-6
7.2507500E+6	242.2653214E-3	288.5556549E-9	4.1927871E-6
7.2510000E+6	254.2240875E-3	580.0078897E-9	4.7727950E-6
7.2512500E+6	266.8434382E-3	337.8783408E-9	5.1106734E-6
7.2515000E+6	278.8022485E-3	73.3293892E-9	5.1840028E-6
7.2517500E+6	291.4048582E-3	378.2332656E-9	5.5622360E-6
7.2520000E+6	303.4429563E-3	651.7499782E-9	6.2139860E-6
7.2522500E+6	316.0453451E-3	409.6204293E-9	6.6236064E-6
7.2525000E+6	328.0083517E-3	1.0014927E-6	7.6250991E-6
7.2527500E+6	340.8775805E-3	754.8792305E-9	8.3799783E-6
7.2530000E+6	352.6432289E-3	526.2013233E-9	8.9061797E-6
7.2532500E+6	365.2484005E-3	606.9111729E-9	9.5130908E-6
7.2535000E+6	377.2166635E-3	1.2391383E-6	10.7522292E-6
7.2537500E+6	389.8988702E-3	544.1368454E-9	11.2963660E-6
7.2540000E+6	401.8658523E-3	1.5754294E-6	12.8717954E-6
7.2542500E+6	414.4808741E-3	920.7828103E-9	13.7925782E-6
7.2545000E+6	426.4693235E-3	1.5754294E-6	15.3680076E-6
7.2547500E+6	439.1529437E-3	1.6202682E-6	16.9882757E-6
7.2550000E+6	451.0515041E-3	2.0417529E-6	19.0300287E-6
7.2552500E+6	463.7521303E-3	1.4723001E-6	20.5023288E-6
7.2555000E+6	475.6587741E-3	2.3466568E-6	22.8489856E-6
7.2557500E+6	487.7247444E-3	1.4857518E-6	24.3347374E-6
7.2560000E+6	499.9860852E-3	3.6514661E-6	27.9862034E-6
7.2562500E+6	512.2911558E-3	3.0147550E-6	31.0009584E-6
7.2565000E+6	524.6241869E-3	4.2971449E-6	35.2981033E-6
7.2567500E+6	536.9578806E-3	4.5616938E-6	39.8597971E-6
7.2570000E+6	549.2129049E-3	4.5706616E-6	44.4304587E-6
7.2572500E+6	561.5595850E-3	5.5929863E-6	50.0234450E-6
7.2575000E+6	573.8358999E-3	6.0189550E-6	56.0424000E-6
7.2577500E+6	586.1010394E-3	6.5794400E-6	62.6218400E-6
7.2580000E+6	598.1013710E-3	7.4134418E-6	70.0352818E-6
7.2582500E+6	610.5109071E-3	7.2968609E-6	77.3321428E-6
7.2585000E+6	622.7500738E-3	8.7810254E-6	86.1131682E-6
7.2587500E+6	634.4799875E-3	8.5254442E-6	94.6386124E-6
7.2590000E+6	647.3368041E-3	8.4447343E-6	103.0833467E-6
7.2592500E+6	659.2223339E-3	9.4536075E-6	112.5369542E-6
7.2595000E+6	672.0125398E-3	9.8347373E-6	122.3716915E-6
7.2597500E+6	683.8465657E-3	10.3862546E-6	132.7579461E-6
7.2600000E+6	696.5993143E-3	11.5296442E-6	144.2875903E-6
7.2602500E+6	708.3885944E-3	11.4758376E-6	155.7634278E-6
7.2605000E+6	721.2817199E-3	10.7270295E-6	166.4904574E-6
7.2607500E+6	733.0967079E-3	12.3412265E-6	178.8316839E-6
7.2610000E+6	745.8323179E-3	13.9868107E-6	192.8184946E-6
7.2612500E+6	757.6314483E-3	29.0616170E-6	221.8801117E-6
7.2615000E+6	770.4360984E-3	47.0419780E-6	268.9220896E-6
7.2617500E+6	782.2192387E-3	58.6283253E-6	327.5504149E-6
7.2620000E+6	794.6180853E-3	67.1028595E-6	394.6532744E-6
7.2622500E+6	806.1390237E-3	73.6313896E-6	468.2846640E-6
7.2625000E+6	819.2065383E-3	85.4419309E-6	553.7265949E-6
7.2627500E+6	830.8243447E-3	89.5312299E-6	643.2578248E-6
7.2630000E+6	843.8223775E-3	91.0333299E-6	734.2911548E-6
7.2632500E+6	855.3097014E-3	91.4817180E-6	825.7728727E-6
7.2635000E+6	868.4084894E-3	92.9613985E-6	918.7342713E-6
7.2637500E+6	879.9917538E-3	93.2663024E-6	1.0120006E-3
7.2640000E+6	893.0093103E-3	93.7505615E-6	1.1057511E-3
7.2642500E+6	904.5947391E-3	94.4904018E-6	1.2002415E-3
7.2645000E+6	917.6747983E-3	94.4634985E-6	1.2947050E-3
7.2647500E+6	929.1815135E-3	95.4409845E-6	1.3901460E-3
7.2650000E+6	942.3013271E-3	95.2840487E-6	1.4854301E-3
7.2652500E+6	954.0567277E-3	96.9968910E-6	1.5824270E-3
7.2655000E+6	966.9177847E-3	97.3690531E-6	1.6797960E-3
7.2657500E+6	978.0735134E-3	97.7815701E-6	1.7775776E-3
7.2660000E+6	991.1322819E-3	97.9698931E-6	1.8755475E-3
7.2662500E+6	1.0026727E+0	97.7770862E-6	1.9733246E-3
7.2665000E+6	1.0156860E+0	99.6423805E-6	2.0729669E-3
7.2667500E+6	1.0272905E+0	98.4720877E-6	2.1714390E-3
7.2670000E+6	1.0403417E+0	99.5527029E-6	2.2709917E-3
7.2672500E+6	1.0519033E+0	100.4853501E-6	2.3714771E-3
7.2675000E+6	1.0649745E+0	100.1445752E-6	2.4716217E-3
7.2677500E+6	1.0765348E+0	100.5795116E-6	2.5722012E-3
7.2680000E+6	1.0896109E+0	101.0099641E-6	2.6732111E-3
7.2682500E+6	1.1012205E+0	101.5300943E-6	2.7747412E-3
7.2685000E+6	1.1142316E+0	101.3910940E-6	2.8761323E-3
7.2687500E+6	1.1258373E+0	102.7855808E-6	2.9789179E-3
7.2690010E+6	1.1384645E+0	102.5165480E-6	3.0814345E-3
7.2692500E+6	1.1502085E+0	102.0860954E-6	3.1835205E-3
7.2695000E+6	1.1629594E+0	103.8751638E-6	3.2873957E-3
7.2697500E+6	1.1748054E+0	103.2922593E-6	3.3906880E-3
7.2700000E+6	1.1875953E+0	103.9110348E-6	3.4945990E-3
7.2702500E+6	1.1994426E+0	104.0276157E-6	3.5986266E-3
7.2705000E+6	1.2142651E+0	105.1396181E-6	3.7037662E-3
7.2707500E+6	1.2240541E+0	106.1619428E-6	3.8099282E-3
7.2710000E+6	1.2368159E+0	105.1575536E-6	3.9150857E-3
7.2712510E+6	1.2487059E+0	105.1665214E-6	4.0202523E-3
7.2715000E+6	1.2615042E+0	105.3189733E-6	4.1255712E-3
7.2717500E+6	1.2733492E+0	106.8659121E-6	4.2324371E-3
7.2720000E+6	1.2861778E+0	107.6147201E-6	4.3400519E-3
7.2722500E+6	1.2979942E+0	107.7492366E-6	4.4478011E-3
7.2725000E+6	1.3108242E+0	107.8613336E-6	4.5556624E-3
7.2727500E+6	1.3226117E+0	108.4038831E-6	4.6640663E-3
7.2730000E+6	1.3353953E+0	108.4621736E-6	4.7725285E-3
7.2732500E+6	1.3473303E+0	109.3768852E-6	4.8819054E-3
7.2735000E+6	1.3600783E+0	108.8029485E-6	4.9907083E-3
7.2737500E+6	1.3718765E+0	110.3543711E-6	5.1010627E-3
7.2740000E+6	1.3846632E+0	109.8745959E-6	5.2109373E-3
7.2742500E+6	1.3963589E+0	109.8476926E-6	5.3207850E-3
7.2745000E+6	1.4087180E+0	109.9597897E-6	5.4307448E-3
7.2747500E+6	1.4209122E+0	110.5292425E-6	5.5412740E-3
7.2750000E+6	1.4333934E+0	110.5113070E-6	5.6517853E-3
7.2752500E+6	1.4455751E+0	111.6502126E-6	5.7634355E-3
7.2755000E+6	1.4579485E+0	112.4842144E-6	5.8759197E-3
7.2757500E+6	1.4702336E+0	111.3318571E-6	5.9872516E-3
7.2760000E+6	1.4752301E+0	112.4304078E-6	6.0996820E-3
7.2762500E+6	1.4640195E+0	112.8070538E-6	6.2124891E-3
7.2765000E+6	1.4515642E+0	112.3855690E-6	6.3248746E-3
7.2767500E+6	1.4394248E+0	111.6905675E-6	6.4365652E-3
7.2770000E+6	1.4269895E+0	111.1390502E-6	6.5477043E-3
7.2772500E+6	1.4147971E+0	111.0762759E-6	6.6587805E-3
7.2775000E+6	1.4022522E+0	110.6144362E-6	6.7693950E-3
7.2777500E+6	1.3901231E+0	110.0539511E-6	6.8794489E-3
7.2780000E+6	1.3776268E+0	110.0718867E-6	6.9895208E-3
7.2782500E+6	1.3654561E+0	109.6862729E-6	7.0992071E-3
7.2785000E+6	1.3530530E+0	109.7849183E-6	7.2089920E-3
7.2787500E+6	1.3408378E+0	108.7805291E-6	7.3177725E-3
7.2790000E+6	1.3283384E+0	108.8567550E-6	7.4266293E-3
7.2792500E+6	1.3162168E+0	107.9868822E-6	7.5346162E-3
7.2795000E+6	1.3036884E+0	108.3097216E-6	7.6429259E-3
7.2797500E+6	1.2915962E+0	107.3008485E-6	7.7502267E-3
7.2800000E+6	1.2790416E+0	106.3233625E-6	7.8565501E-3
7.2802500E+6	1.2672327E+0	106.4713306E-6	7.9630214E-3
7.2805000E+6	1.2551128E+0	106.0319103E-6	8.0690533E-3
7.2807500E+6	1.2426108E+0	105.9915554E-6	8.1750449E-3
7.2810000E+6	1.2305635E+0	105.9960393E-6	8.2810409E-3
7.2812500E+6	1.2180062E+0	105.0992632E-6	8.3861402E-3
7.2815000E+6	1.2058458E+0	105.6149094E-6	8.4917551E-3
7.2817500E+6	1.1933473E+0	103.9155187E-6	8.5956706E-3
7.2820000E+6	1.1812850E+0	103.6689053E-6	8.6993395E-3
7.2822500E+6	1.1687134E+0	103.8841315E-6	8.8032237E-3
7.2825000E+6	1.1566452E+0	104.1755838E-6	8.9073992E-3
7.2827500E+6	1.1440991E+0	102.7362581E-6	9.0101355E-3
7.2830000E+6	1.1320242E+0	102.5120641E-6	9.1126476E-3
7.2832500E+6	1.1195417E+0	102.0188372E-6	9.2146664E-3
7.2835000E+6	1.1081565E+0	102.3416766E-6	9.3170081E-3
7.2837500E+6	1.0952165E+0	101.7094495E-6	9.4187175E-3
7.2840000E+6	1.0835867E+0	101.2117387E-6	9.5199293E-3
7.2842500E+6	1.0705367E+0	101.3193519E-6	9.6212486E-3
7.2845000E+6	1.0589016E+0	100.7409313E-6	9.7219895E-3
7.2847500E+6	1.0459277E+0	100.4225758E-6	9.8224121E-3
7.2850000E+6	1.0340386E+0	99.5437352E-6	9.9219559E-3
7.2852500E+6	1.0213027E+0	99.3374767E-6	10.0212933E-3
7.2855000E+6	1.0097134E+0	98.8397659E-6	10.1201331E-3
7.2857500E+6	995.8810254E-3	99.3240250E-6	10.2194571E-3
7.2860000E+6	985.0130740E-3	98.4362167E-6	10.3178933E-3
7.2862500E+6	972.0452545E-3	98.0102480E-6	10.4159036E-3
7.2865000E+6	960.3117188E-3	97.6829248E-6	10.5135865E-3
7.2867500E+6	947.4209785E-3	96.9834394E-6	10.6105700E-3
7.2870000E+6	935.7905832E-3	94.7997896E-6	10.7053697E-3
7.2872500E+6	922.7792548E-3	95.1450484E-6	10.8005148E-3
7.2875000E+6	911.6732633E-3	95.4095973E-6	10.8959244E-3
7.2877500E+6	898.5914372E-3	94.1092720E-6	10.9900337E-3
7.2880000E+6	887.0464695E-3	93.8402391E-6	11.0838739E-3
7.2882500E+6	873.9520104E-3	93.2842379E-6	11.1771581E-3
7.2885000E+6	862.7204835E-3	93.2169797E-6	11.2703751E-3
7.2887500E+6	849.8626068E-3	93.1452377E-6	11.3635204E-3
7.2890010E+6	838.1274809E-3	92.2753648E-6	11.4557957E-3
7.2892500E+6	825.2853293E-3	92.0197836E-6	11.5478155E-3
7.2895000E+6	813.5442402E-3	92.6116559E-6	11.6404272E-3
7.2897500E+6	800.6080916E-3	90.2934896E-6	11.7307207E-3
7.2900000E+6	788.9661675E-3	79.1420787E-6	11.8098627E-3
7.2902500E+6	776.0506471E-3	61.4755894E-6	11.8713383E-3
7.2905000E+6	764.2456419E-3	46.1900407E-6	11.9175284E-3
7.2907500E+6	751.4173159E-3	27.1470001E-6	11.9446754E-3
7.2910000E+6	739.7419098E-3	12.4084847E-6	11.9570838E-3
7.2912500E+6	726.8064680E-3	12.3053555E-6	11.9693892E-3
7.2915000E+6	715.1588016E-3	12.3546782E-6	11.9817439E-3
7.2917500E+6	702.2311782E-3	12.2336134E-6	11.9939775E-3
7.2920000E+6	690.4997627E-3	11.6731283E-6	12.0056506E-3
7.2922500E+6	677.5466965E-3	10.2651898E-6	12.0159158E-3
7.2925000E+6	665.8841001E-3	10.1575767E-6	12.0260734E-3
7.2927500E+6	652.9740569E-3	9.9782215E-6	12.0360516E-3
7.2930000E+6	641.2554511E-3	8.0277335E-6	12.0440793E-3
7.2932500E+6	628.8994950E-3	8.5568314E-6	12.0526362E-3
7.2935000E+6	616.9232369E-3	7.7676684E-6	12.0604038E-3
7.2937500E+6	604.3028262E-3	7.1533768E-6	12.0675572E-3
7.2940000E+6	592.2926444E-3	6.6691177E-6	12.0742263E-3
7.2942500E+6	579.6656079E-3	7.0233442E-6	12.0812497E-3
7.2945000E+6	567.7011878E-3	5.4898571E-6	12.0867395E-3
7.2947500E+6	555.0519772E-3	5.4719216E-6	12.0922115E-3
7.2950000E+6	543.0802688E-3	4.5437583E-6	12.0967552E-3
7.2952500E+6	530.5016443E-3	4.1850478E-6	12.1009403E-3
7.2955010E+6	518.4310359E-3	3.9653377E-6	12.1049056E-3
7.2957500E+6	505.7885394E-3	3.5886917E-6	12.1084943E-3
7.2960010E+6	494.0993076E-3	4.1222735E-6	12.1126166E-3
7.2962500E+6	481.8864230E-3	2.5663670E-6	12.1151829E-3
7.2965000E+6	469.5576323E-3	2.2659470E-6	12.1174489E-3
7.2967500E+6	457.3272115E-3	1.9744947E-6	12.1194234E-3
7.2970000E+6	444.8549077E-3	1.8041073E-6	12.1212275E-3
7.2972500E+6	432.6607959E-3	1.9386237E-6	12.1231661E-3
7.2975000E+6	420.2873037E-3	727.9759473E-9	12.1238941E-3
7.2977500E+6	408.0439407E-3	279.5878938E-9	12.1241737E-3
7.2980000E+6	395.6552536E-3	279.5878938E-9	12.1244533E-3
7.2982500E+6	383.4599491E-3	297.5234160E-9	12.1247508E-3
7.2985000E+6	371.0699810E-3	970.1054962E-9	12.1257209E-3
7.2987500E+6	358.8800654E-3	1.0104604E-6	12.1267313E-3
7.2990000E+6	346.4783035E-3	391.6849072E-9	12.1271230E-3
7.2992500E+6	334.2061849E-3	1.2615577E-6	12.1283846E-3
7.2995000E+6	321.8770408E-3	665.2016198E-9	12.1290498E-3
7.2997500E+6	309.6233417E-3	840.0729607E-9	12.1298899E-3
7.3000000E+6	297.5073251E-3	180.9425221E-9	12.1300708E-3
7.3002500E+6	285.6925138E-3	526.2013233E-9	12.1305970E-3
7.3005000E+6	273.0064200E-3	409.6204293E-9	12.1310066E-3
7.3007500E+6	261.3231072E-3	1.3153643E-6	12.1323220E-3
7.3010000E+6	248.4141242E-3	875.9440050E-9	12.1331979E-3
7.3012500E+6	236.5699830E-3	100.2326724E-9	12.1332982E-3
7.3015010E+6	223.7222216E-3	1.4364291E-6	12.1347346E-3
7.3017500E+6	212.0260991E-3	754.8792305E-9	12.1354895E-3
7.3020000E+6	199.1250669E-3	288.5556549E-9	12.1357780E-3
7.3022500E+6	187.3265107E-3	-2.8965799E-9	12.1357751E-3
7.3025000E+6	174.5691242E-3	669.6855004E-9	12.1364448E-3
7.3027500E+6	163.3587554E-3	-70.1547879E-9	12.1363747E-3
7.3030000E+6	150.3768894E-3	100.2326724E-9	12.1364749E-3
7.3032500E+6	139.1246461E-3	149.5553583E-9	12.1366245E-3
7.3035000E+6	126.1529395E-3	1.1898156E-6	12.1378143E-3
7.3037500E+6	114.5842076E-3	-644.0914963E-9	12.1371702E-3
7.3040000E+6	101.5602020E-3	82.2971503E-9	12.1372525E-3
7.3042500E+6	88.6394714E-3	-88.0903100E-9	12.1371644E-3
7.3045000E+6	77.0330847E-3	154.0392389E-9	12.1373184E-3
7.3047510E+6	65.3340180E-3	-38.7676241E-9	12.1372797E-3
7.3050000E+6	52.4705982E-3	68.8455087E-9	12.1373485E-3
7.3052500E+6	40.7615685E-3	-11.8643409E-9	12.1373366E-3
7.3055000E+6	27.7913220E-3	279.5878938E-9	12.1376162E-3
7.3057500E+6	16.1745297E-3	844.5568412E-9	12.1384608E-3
7.3060000E+6	3.7435347E-3	337.8783408E-9	12.1387987E-3
