Acquisition Time (ms)	Shunt Voltage (V)	Sample Voltage (V)	Integrated Sample Voltage (V)		
milliseconds	Volts	Volts	Volts		
4.2735000E+6	2.4592318E-3	458.9431152E-9	458.9431152E-9
4.2737500E+6	13.0024648E-3	692.1049030E-9	1.1510480E-6
4.2740000E+6	25.4643681E-3	557.5884870E-9	1.7086365E-6
4.2742500E+6	37.5187923E-3	1.5530100E-6	3.2616465E-6
4.2745000E+6	49.9855676E-3	472.3947568E-9	3.7340412E-6
4.2747500E+6	62.1676162E-3	1.3826225E-6	5.1166637E-6
4.2750000E+6	74.5462393E-3	1.9027526E-6	7.0194164E-6
4.2752500E+6	86.8393877E-3	2.5484314E-6	9.5678478E-6
4.2755000E+6	99.2722735E-3	3.4048526E-6	12.9727005E-6
4.2757500E+6	111.5123482E-3	3.4945302E-6	16.4672307E-6
4.2760000E+6	126.3645209E-3	5.5257281E-6	21.9929588E-6
4.2762500E+6	136.1760230E-3	6.1848586E-6	28.1778174E-6
4.2765000E+6	148.5996498E-3	7.2834093E-6	35.4612267E-6
4.2767500E+6	160.8264044E-3	10.0634152E-6	45.5246419E-6
4.2770000E+6	173.3341779E-3	21.0982452E-6	66.6228871E-6
4.2772500E+6	185.2440462E-3	70.0980917E-6	136.7209788E-6
4.2775000E+6	197.1880149E-3	81.5140515E-6	218.2350303E-6
4.2777500E+6	209.8668645E-3	81.3077930E-6	299.5428234E-6
4.2780000E+6	221.9812468E-3	82.7829897E-6	382.3258131E-6
4.2782500E+6	234.5172901E-3	83.6707981E-6	465.9966112E-6
4.2785000E+6	246.6102492E-3	83.6214754E-6	549.6180866E-6
4.2787500E+6	259.1593672E-3	83.3076038E-6	632.9256903E-6
4.2790000E+6	271.2393841E-3	84.2985414E-6	717.2242317E-6
4.2792500E+6	283.8656696E-3	83.9084437E-6	801.1326755E-6
4.2795000E+6	295.0376975E-3	84.0922829E-6	885.2249583E-6
4.2797500E+6	308.1405051E-3	84.3927028E-6	969.6176612E-6
4.2800000E+6	319.7674992E-3	85.0608010E-6	1.0546785E-3
4.2802510E+6	332.8562602E-3	84.9531879E-6	1.1396317E-3
4.2805010E+6	344.4829893E-3	85.1415109E-6	1.2247732E-3
4.2807500E+6	357.5174636E-3	85.8723834E-6	1.3106455E-3
4.2810000E+6	369.0941022E-3	84.9711234E-6	1.3956167E-3
4.2812500E+6	382.1301225E-3	85.3567372E-6	1.4809734E-3
4.2815000E+6	393.2856302E-3	86.3790619E-6	1.5673525E-3
4.2817500E+6	406.4154707E-3	86.7332885E-6	1.6540858E-3
4.2820000E+6	417.6947470E-3	87.1054506E-6	1.7411912E-3
4.2822510E+6	430.5438335E-3	86.5315139E-6	1.8277227E-3
4.2825000E+6	442.3069642E-3	88.1726141E-6	1.9158953E-3
4.2827500E+6	455.1091848E-3	88.0605171E-6	2.0039559E-3
4.2830000E+6	466.9963489E-3	88.2264207E-6	2.0921823E-3
4.2832500E+6	479.7857156E-3	88.2040013E-6	2.1803863E-3
4.2835000E+6	491.6402371E-3	89.0693902E-6	2.2694557E-3
4.2837500E+6	504.5262951E-3	88.9797126E-6	2.3584354E-3
4.2840000E+6	516.0552728E-3	89.2577132E-6	2.4476931E-3
4.2842500E+6	528.5894608E-3	90.7104905E-6	2.5384036E-3
4.2845000E+6	540.7288442E-3	90.3517801E-6	2.6287554E-3
4.2847500E+6	553.1818892E-3	90.4818126E-6	2.7192372E-3
4.2850000E+6	565.4113824E-3	90.3741995E-6	2.8096114E-3
4.2852500E+6	577.9245448E-3	90.7777487E-6	2.9003891E-3
4.2855000E+6	590.1013855E-3	91.2306207E-6	2.9916197E-3
4.2857500E+6	602.6427294E-3	91.2485562E-6	3.0828683E-3
4.2860000E+6	614.7416516E-3	92.4188490E-6	3.1752871E-3
4.2862500E+6	626.7122999E-3	92.6206236E-6	3.2679078E-3
4.2865000E+6	639.1306261E-3	92.3919457E-6	3.3602997E-3
4.2867500E+6	651.7758171E-3	92.4143651E-6	3.4527141E-3
4.2870000E+6	663.7415182E-3	92.1363645E-6	3.5448504E-3
4.2872500E+6	675.8548845E-3	93.1452377E-6	3.6379957E-3
4.2875000E+6	688.4206994E-3	92.2350099E-6	3.7302307E-3
4.2877500E+6	700.6721899E-3	94.9522415E-6	3.8251829E-3
4.2880000E+6	713.0962585E-3	94.1272075E-6	3.9193101E-3
4.2882500E+6	725.1690312E-3	94.7459830E-6	4.0140561E-3
4.2885010E+6	737.7729219E-3	95.1674678E-6	4.1092236E-3
4.2887500E+6	749.9159273E-3	94.9881126E-6	4.2042117E-3
4.2890000E+6	762.4248492E-3	95.5934364E-6	4.2998051E-3
4.2892500E+6	774.6518688E-3	96.3198251E-6	4.3961250E-3
4.2895000E+6	787.0961237E-3	96.7682131E-6	4.4928932E-3
4.2897510E+6	799.1198219E-3	95.4634039E-6	4.5883566E-3
4.2900000E+6	811.4114643E-3	96.8489230E-6	4.6852055E-3
4.2902500E+6	823.2173088E-3	97.6201504E-6	4.7828257E-3
4.2905000E+6	836.0334876E-3	99.0146373E-6	4.8818403E-3
4.2907500E+6	847.7053158E-3	97.9564415E-6	4.9797967E-3
4.2910000E+6	860.9530941E-3	98.1313128E-6	5.0779280E-3
4.2912500E+6	872.4707639E-3	98.6469591E-6	5.1765750E-3
4.2915000E+6	885.3811163E-3	99.4047349E-6	5.2759797E-3
4.2917500E+6	897.0928313E-3	100.3104787E-6	5.3762902E-3
4.2920000E+6	910.0254461E-3	99.8710585E-6	5.4761613E-3
4.2922500E+6	921.7605279E-3	99.2926379E-6	5.5754539E-3
4.2925000E+6	934.8470361E-3	99.8620907E-6	5.6753160E-3
4.2927500E+6	946.4974854E-3	100.9292543E-6	5.7762453E-3
4.2930000E+6	959.3770502E-3	101.9515790E-6	5.8781968E-3
4.2932500E+6	971.1271503E-3	101.2745131E-6	5.9794714E-3
4.2935000E+6	984.0666558E-3	100.9740931E-6	6.0804454E-3
4.2937500E+6	995.8923775E-3	101.9874501E-6	6.1824329E-3
4.2940000E+6	1.0083123E+0	102.2519990E-6	6.2846849E-3
4.2942500E+6	1.0198687E+0	102.1757730E-6	6.3868607E-3
4.2945000E+6	1.0326340E+0	102.8393874E-6	6.4897001E-3
4.2947510E+6	1.0442606E+0	103.9558736E-6	6.5936559E-3
4.2950000E+6	1.0572337E+0	103.5792277E-6	6.6972352E-3
4.2952500E+6	1.0689472E+0	103.5881954E-6	6.8008234E-3
4.2955000E+6	1.0818851E+0	104.2069709E-6	6.9050303E-3
4.2957500E+6	1.0936748E+0	104.6598429E-6	7.0096902E-3
4.2960000E+6	1.1065999E+0	104.1038417E-6	7.1137940E-3
4.2962500E+6	1.1182950E+0	105.2203279E-6	7.2190143E-3
4.2965000E+6	1.1312824E+0	106.0588136E-6	7.3250732E-3
4.2967500E+6	1.1430040E+0	106.8838476E-6	7.4319570E-3
4.2970000E+6	1.1560689E+0	106.6327503E-6	7.5385897E-3
4.2972500E+6	1.1674766E+0	107.3232679E-6	7.6459130E-3
4.2975000E+6	1.1795010E+0	107.2111709E-6	7.7531242E-3
4.2977500E+6	1.1918084E+0	107.7716560E-6	7.8608958E-3
4.2980000E+6	1.2069114E+0	108.2110762E-6	7.9691069E-3
4.2982500E+6	1.2164738E+0	107.9554951E-6	8.0770624E-3
4.2985000E+6	1.2287549E+0	108.1258825E-6	8.1851883E-3
4.2987500E+6	1.2411585E+0	108.9688521E-6	8.2941571E-3
4.2990000E+6	1.2533175E+0	108.9957553E-6	8.4031529E-3
4.2992500E+6	1.2658241E+0	109.5427888E-6	8.5126957E-3
4.2995000E+6	1.2781408E+0	109.7580150E-6	8.6224537E-3
4.2997500E+6	1.2905337E+0	110.1525965E-6	8.7326063E-3
4.3000000E+6	1.3028384E+0	109.8566604E-6	8.8424630E-3
4.3002500E+6	1.3152122E+0	111.1614696E-6	8.9536244E-3
4.3005000E+6	1.3274457E+0	111.0897276E-6	9.0647142E-3
4.3007500E+6	1.3399081E+0	111.9013099E-6	9.1766155E-3
4.3010000E+6	1.3521402E+0	112.2734720E-6	9.2888889E-3
4.3012500E+6	1.3646057E+0	111.8161162E-6	9.4007051E-3
4.3015000E+6	1.3768641E+0	113.3271839E-6	9.5140322E-3
4.3017500E+6	1.3893038E+0	113.7979914E-6	9.6278302E-3
4.3020000E+6	1.4009492E+0	114.3270893E-6	9.7421573E-3
4.3022510E+6	1.4136803E+0	112.8115377E-6	9.8549689E-3
4.3025000E+6	1.4254290E+0	114.8158323E-6	9.9697847E-3
4.3027500E+6	1.4383013E+0	115.1386717E-6	10.0849234E-3
4.3030000E+6	1.4501155E+0	115.4121884E-6	10.2003356E-3
4.3032500E+6	1.4630292E+0	115.7708988E-6	10.3161065E-3
4.3035000E+6	1.4749000E+0	115.7708988E-6	10.4318774E-3
4.3037500E+6	1.4770954E+0	116.1654803E-6	10.5480428E-3
4.3040000E+6	1.4664617E+0	115.5018660E-6	10.6635447E-3
4.3042500E+6	1.4533756E+0	115.2687042E-6	10.7788134E-3
4.3045000E+6	1.4417854E+0	114.4077991E-6	10.8932212E-3
4.3047500E+6	1.4286886E+0	113.9594111E-6	11.0071806E-3
4.3050000E+6	1.4171426E+0	113.8831851E-6	11.1210638E-3
4.3052500E+6	1.4039838E+0	114.6050899E-6	11.2356689E-3
4.3055010E+6	1.3923990E+0	112.5873437E-6	11.3482562E-3
4.3057500E+6	1.3793236E+0	112.3048592E-6	11.4605611E-3
4.3060000E+6	1.3678791E+0	112.4259240E-6	11.5729870E-3
4.3062500E+6	1.3550808E+0	111.9551165E-6	11.6849421E-3
4.3065000E+6	1.3433993E+0	111.0897276E-6	11.7960319E-3
4.3067500E+6	1.3303805E+0	112.2510526E-6	11.9082829E-3
4.3070000E+6	1.3187355E+0	110.5875329E-6	12.0188704E-3
4.3072500E+6	1.3057194E+0	111.1749213E-6	12.1300454E-3
4.3075000E+6	1.2940272E+0	109.5965953E-6	12.2396420E-3
4.3077500E+6	1.2810079E+0	110.2019192E-6	12.3498439E-3
4.3080000E+6	1.2693265E+0	109.7445634E-6	12.4595884E-3
4.3082500E+6	1.2562702E+0	110.1750159E-6	12.5697635E-3
4.3085000E+6	1.2446270E+0	108.6908515E-6	12.6784543E-3
4.3087500E+6	1.2322141E+0	108.9015939E-6	12.7873559E-3
4.3090000E+6	1.2202443E+0	108.5159801E-6	12.8958719E-3
4.3092500E+6	1.2074763E+0	107.4353649E-6	13.0033073E-3
4.3095000E+6	1.1955596E+0	108.0137855E-6	13.1113210E-3
4.3097500E+6	1.1827733E+0	107.5384942E-6	13.2188595E-3
4.3100000E+6	1.1708981E+0	107.2918807E-6	13.3261514E-3
4.3102500E+6	1.1581657E+0	106.9376542E-6	13.4330891E-3
4.3105000E+6	1.1461781E+0	105.4714252E-6	13.5385605E-3
4.3107500E+6	1.1334908E+0	105.3682960E-6	13.6439288E-3
4.3110000E+6	1.1215010E+0	105.9736199E-6	13.7499024E-3
4.3112500E+6	1.1087405E+0	106.1036524E-6	13.8560061E-3
4.3115010E+6	1.0967998E+0	104.4760038E-6	13.9604821E-3
4.3117500E+6	1.0840879E+0	104.8974885E-6	14.0653796E-3
4.3120000E+6	1.0721391E+0	104.2338742E-6	14.1696134E-3
4.3122500E+6	1.0593978E+0	103.0052909E-6	14.2726187E-3
4.3125000E+6	1.0474232E+0	103.3101948E-6	14.3759289E-3
4.3127500E+6	1.0353546E+0	102.0457405E-6	14.4779747E-3
4.3130000E+6	1.0230512E+0	103.3684853E-6	14.5813431E-3
4.3132500E+6	1.0106418E+0	102.1847408E-6	14.6835279E-3
4.3135000E+6	997.6934697E-3	102.4806769E-6	14.7860086E-3
4.3137500E+6	986.0063581E-3	101.7184172E-6	14.8877270E-3
4.3140000E+6	973.6791577E-3	101.5525137E-6	14.9892795E-3
4.3142500E+6	961.2106526E-3	101.1713838E-6	15.0904509E-3
4.3145000E+6	948.9648160E-3	100.0638653E-6	15.1905147E-3
4.3147500E+6	936.6049286E-3	100.3463498E-6	15.2908611E-3
4.3150000E+6	924.5408135E-3	99.9652199E-6	15.3908263E-3
4.3152500E+6	912.7631504E-3	99.4719931E-6	15.4902983E-3
4.3155000E+6	899.9491802E-3	99.4675092E-6	15.5897658E-3
4.3157500E+6	887.9847601E-3	99.2971217E-6	15.6890629E-3
4.3160000E+6	875.2474274E-3	98.7007656E-6	15.7877637E-3
4.3162500E+6	863.2777951E-3	98.0102480E-6	15.8857739E-3
4.3165000E+6	850.5500918E-3	98.3689585E-6	15.9841429E-3
4.3167500E+6	838.6708784E-3	97.5753116E-6	16.0817182E-3
4.3170000E+6	825.9092956E-3	97.5394406E-6	16.1792577E-3
4.3172510E+6	813.9718201E-3	97.2883433E-6	16.2765460E-3
4.3175000E+6	801.2825460E-3	96.2525669E-6	16.3727986E-3
4.3177500E+6	789.3051837E-3	96.3467284E-6	16.4691453E-3
4.3180000E+6	776.5981526E-3	96.4319221E-6	16.5655772E-3
4.3182500E+6	765.4259922E-3	95.6337913E-6	16.6612110E-3
4.3185000E+6	752.3653684E-3	95.1540161E-6	16.7563650E-3
4.3187500E+6	740.8566655E-3	94.4276275E-6	16.8507926E-3
4.3190000E+6	727.6735101E-3	94.5307567E-6	16.9453234E-3
4.3192500E+6	716.5754252E-3	94.8984349E-6	17.0402218E-3
4.3195000E+6	703.5050837E-3	94.4410791E-6	17.1346629E-3
4.3197500E+6	691.9159004E-3	94.0106266E-6	17.2286735E-3
4.3200000E+6	678.8225897E-3	93.8133359E-6	17.3224869E-3
4.3202500E+6	667.2245721E-3	93.2932057E-6	17.4157801E-3
4.3205000E+6	654.1355460E-3	93.7460776E-6	17.5095262E-3
4.3207500E+6	642.5702153E-3	92.4681717E-6	17.6019943E-3
4.3210000E+6	629.4567182E-3	92.1901711E-6	17.6941845E-3
4.3212500E+6	617.9178462E-3	91.2799433E-6	17.7854645E-3
4.3215000E+6	604.7802315E-3	91.7417830E-6	17.8772062E-3
4.3217500E+6	593.2090260E-3	91.0916204E-6	17.9682979E-3
4.3220000E+6	580.0875781E-3	91.0916204E-6	18.0593895E-3
4.3222500E+6	568.5695108E-3	91.1319753E-6	18.1505215E-3
4.3225000E+6	555.4623303E-3	91.2664917E-6	18.2417879E-3
4.3227500E+6	543.8887836E-3	90.7642971E-6	18.3325522E-3
4.3230000E+6	531.2376737E-3	90.0020374E-6	18.4225543E-3
4.3232500E+6	519.4506021E-3	88.8586479E-6	18.5114129E-3
4.3235000E+6	506.6055351E-3	88.8541640E-6	18.6002671E-3
4.3237500E+6	494.7570652E-3	88.4057759E-6	18.6886729E-3
4.3240000E+6	481.9818334E-3	89.0469708E-6	18.7777198E-3
4.3242500E+6	470.1195819E-3	88.7017120E-6	18.8664215E-3
4.3245000E+6	457.2621911E-3	88.2802273E-6	18.9547018E-3
4.3247500E+6	445.4186242E-3	86.9933536E-6	19.0416951E-3
4.3250000E+6	432.6530218E-3	87.0202568E-6	19.1287154E-3
4.3252500E+6	420.7420933E-3	86.5808365E-6	19.2152962E-3
4.3255000E+6	408.0053790E-3	86.7377724E-6	19.3020340E-3
4.3257500E+6	396.2663218E-3	86.2714488E-6	19.3883054E-3
4.3260000E+6	383.9049768E-3	86.3835458E-6	19.4746890E-3
4.3262500E+6	371.6955375E-3	85.6840604E-6	19.5603730E-3
4.3265000E+6	359.1845395E-3	86.0651903E-6	19.6464382E-3
4.3267500E+6	347.0910945E-3	85.3163822E-6	19.7317546E-3
4.3270000E+6	334.5927737E-3	85.6750927E-6	19.8174297E-3
4.3272500E+6	322.4486198E-3	84.4868643E-6	19.9019166E-3
4.3275000E+6	309.9438058E-3	84.0967667E-6	19.9860133E-3
4.3277510E+6	297.7203200E-3	84.2985414E-6	20.0703119E-3
4.3280000E+6	285.2960306E-3	84.1774766E-6	20.1544894E-3
4.3282500E+6	273.0728981E-3	84.8321231E-6	20.2393215E-3
4.3285000E+6	261.2377238E-3	84.1236700E-6	20.3234452E-3
4.3287500E+6	248.7457636E-3	83.8860243E-6	20.4073312E-3
4.3290000E+6	236.6546597E-3	82.9130223E-6	20.4902442E-3
4.3292500E+6	223.9999719E-3	82.7785059E-6	20.5730227E-3
4.3295000E+6	211.9880674E-3	82.0700527E-6	20.6550928E-3
4.3297500E+6	199.3702628E-3	82.1148915E-6	20.7372077E-3
4.3300000E+6	187.3316346E-3	78.7026584E-6	20.8159103E-3
4.3302500E+6	174.7154643E-3	30.4919749E-6	20.8464023E-3
4.3305000E+6	162.6642030E-3	8.2250242E-6	20.8546273E-3
4.3307500E+6	150.0730780E-3	7.7631845E-6	20.8623905E-3
4.3310000E+6	137.9401878E-3	6.8126018E-6	20.8692031E-3
4.3312510E+6	125.3787018E-3	4.3509514E-6	20.8735540E-3
4.3315000E+6	113.3124223E-3	3.0237228E-6	20.8765778E-3
4.3317500E+6	100.7216506E-3	1.8354944E-6	20.8784133E-3
4.3320000E+6	87.6460769E-3	1.6740747E-6	20.8800873E-3
4.3322500E+6	76.4458015E-3	1.4543646E-6	20.8815417E-3
4.3325000E+6	64.8080640E-3	1.3826225E-6	20.8829243E-3
4.3327500E+6	51.8031369E-3	723.4920668E-9	20.8836478E-3
4.3330000E+6	40.1272681E-3	1.4678162E-6	20.8851156E-3
4.3332500E+6	27.1893334E-3	2.0327852E-6	20.8871484E-3
4.3335000E+6	15.5292696E-3	1.4857518E-6	20.8886342E-3
4.3337500E+6	2.9256175E-3	575.5240091E-9	20.8892097E-3
