Acquisition Time (ms)	Shunt Voltage (V)	Sample Voltage (V)	Integrated Sample Voltage (V)		
milliseconds	Volts	Volts	Volts		
5.8577500E+6	7.7851198E-3	526.2013233E-9	526.2013233E-9
5.8580000E+6	19.9110017E-3	91.2649114E-9	617.4662346E-9
5.8582510E+6	31.9716880E-3	225.7813274E-9	843.2475620E-9
5.8585000E+6	43.8205267E-3	1.1718801E-6	2.0151277E-6
5.8587500E+6	56.6254912E-3	1.2301706E-6	3.2452982E-6
5.8590000E+6	68.2881832E-3	-52.2192657E-9	3.1930790E-6
5.8592500E+6	81.2398356E-3	427.5559515E-9	3.6206349E-6
5.8595000E+6	92.9148238E-3	584.4917702E-9	4.2051267E-6
5.8597500E+6	105.7964041E-3	467.9108763E-9	4.6730376E-6
5.8600000E+6	117.4612818E-3	-505.0911998E-9	4.1679464E-6
5.8602510E+6	132.4452997E-3	333.3944603E-9	4.5013408E-6
5.8605000E+6	142.0970335E-3	360.2977435E-9	4.8616386E-6
5.8607500E+6	155.0763375E-3	808.6857969E-9	5.6703244E-6
5.8610000E+6	166.8537356E-3	642.7822172E-9	6.3131066E-6
5.8612500E+6	179.7190772E-3	198.8780442E-9	6.5119846E-6
5.8615000E+6	191.4684264E-3	965.6216157E-9	7.4776063E-6
5.8617500E+6	204.3202074E-3	1.3198482E-6	8.7974544E-6
5.8620000E+6	215.4804415E-3	544.1368454E-9	9.3415913E-6
5.8622500E+6	228.5920391E-3	207.8458053E-9	9.5494371E-6
5.8625000E+6	239.8108446E-3	369.2655045E-9	9.9187026E-6
5.8627500E+6	252.6859482E-3	1.4812679E-6	11.3999705E-6
5.8630000E+6	264.4247403E-3	790.7502748E-9	12.1907207E-6
5.8632500E+6	276.7362599E-3	24.0067033E-9	12.2147274E-6
5.8635000E+6	288.7836341E-3	1.4140097E-6	13.6287371E-6
5.8637500E+6	301.3391128E-3	844.5568412E-9	14.4732940E-6
5.8640000E+6	313.4086168E-3	2.1538500E-6	16.6271439E-6
5.8642500E+6	325.9946622E-3	3.3869171E-6	20.0140610E-6
5.8645000E+6	338.0604559E-3	3.6828532E-6	23.6969142E-6
5.8647500E+6	350.5940697E-3	4.7051780E-6	28.4020922E-6
5.8650000E+6	362.6319028E-3	4.7858878E-6	33.1879801E-6
5.8652500E+6	375.2242647E-3	4.7365651E-6	37.9245452E-6
5.8655000E+6	386.9850542E-3	5.5929863E-6	43.5175315E-6
5.8657500E+6	399.1216989E-3	6.5794400E-6	50.0969716E-6
5.8660000E+6	411.5654680E-3	6.7363759E-6	56.8333474E-6
5.8662500E+6	423.7948286E-3	7.8932170E-6	64.7265645E-6
5.8665000E+6	436.1806005E-3	8.8124126E-6	73.5389770E-6
5.8667500E+6	448.4197230E-3	8.3281535E-6	81.8671305E-6
5.8670000E+6	460.8844735E-3	8.8303481E-6	90.6974786E-6
5.8672500E+6	473.0907325E-3	9.8571567E-6	100.5546353E-6
5.8675000E+6	485.4930686E-3	11.5430958E-6	112.0977311E-6
5.8677500E+6	496.9468664E-3	11.8300642E-6	123.9277952E-6
5.8680000E+6	509.7198013E-3	27.5550332E-6	151.4828284E-6
5.8682510E+6	521.5057686E-3	49.6515965E-6	201.1344249E-6
5.8685000E+6	534.3938586E-3	63.4709163E-6	264.6053411E-6
5.8687500E+6	546.2417543E-3	76.4024277E-6	341.0077689E-6
5.8690000E+6	559.0331529E-3	84.2716381E-6	425.2794070E-6
5.8692500E+6	570.8226981E-3	85.9396416E-6	511.2190486E-6
5.8695010E+6	583.6738607E-3	85.6795766E-6	596.8986251E-6
5.8697500E+6	595.5087700E-3	87.6749034E-6	684.5735285E-6
5.8700000E+6	608.2612535E-3	87.1906443E-6	771.7641728E-6
5.8702500E+6	620.0678047E-3	89.1904550E-6	860.9546279E-6
5.8705000E+6	632.9304077E-3	88.4506147E-6	949.4052426E-6
5.8707500E+6	644.6657545E-3	90.3069413E-6	1.0397122E-3
5.8710000E+6	657.5865756E-3	89.8002628E-6	1.1295124E-3
5.8712500E+6	668.8800750E-3	90.0199729E-6	1.2195324E-3
5.8715000E+6	681.7714778E-3	90.7867165E-6	1.3103191E-3
5.8717500E+6	693.2817709E-3	91.2933950E-6	1.4016125E-3
5.8720000E+6	706.4300751E-3	90.2082959E-6	1.4918208E-3
5.8722500E+6	717.9332124E-3	92.2888165E-6	1.5841096E-3
5.8725000E+6	731.0323537E-3	92.4771395E-6	1.6765868E-3
5.8727500E+6	742.6141604E-3	92.1587839E-6	1.7687456E-3
5.8730000E+6	755.6482371E-3	92.7327206E-6	1.8614783E-3
5.8732500E+6	767.0516353E-3	92.6430430E-6	1.9541213E-3
5.8735000E+6	779.8573012E-3	92.9927857E-6	2.0471141E-3
5.8737500E+6	791.4309362E-3	94.3155305E-6	2.1414296E-3
5.8740000E+6	804.4080317E-3	94.0509815E-6	2.2354806E-3
5.8742500E+6	816.0782256E-3	94.5531761E-6	2.3300338E-3
5.8745000E+6	828.9588506E-3	94.8804994E-6	2.4249143E-3
5.8747500E+6	840.6642491E-3	96.1494376E-6	2.5210637E-3
5.8750010E+6	853.6409912E-3	95.8400499E-6	2.6169038E-3
5.8752500E+6	865.0694345E-3	96.0104373E-6	2.7129142E-3
5.8755000E+6	877.7222230E-3	97.0193104E-6	2.8099335E-3
5.8757500E+6	889.6593010E-3	96.6785355E-6	2.9066121E-3
5.8760000E+6	902.3898313E-3	97.3959564E-6	3.0040080E-3
5.8762510E+6	914.2879941E-3	97.6022149E-6	3.1016102E-3
5.8765000E+6	927.0016067E-3	97.1314074E-6	3.1987417E-3
5.8767500E+6	938.9483141E-3	98.4407006E-6	3.2971824E-3
5.8770000E+6	951.6617058E-3	98.7814755E-6	3.3959638E-3
5.8772500E+6	963.6372571E-3	99.3823155E-6	3.4953461E-3
5.8775000E+6	976.2760874E-3	100.2118334E-6	3.5955580E-3
5.8777500E+6	988.2152856E-3	99.6558322E-6	3.6952138E-3
5.8780000E+6	1.0002668E+0	99.9786716E-6	3.7951925E-3
5.8782500E+6	1.0125328E+0	101.1220611E-6	3.8963145E-3
5.8785000E+6	1.0248407E+0	100.9965125E-6	3.9973111E-3
5.8787500E+6	1.0372312E+0	101.4135134E-6	4.0987246E-3
5.8790000E+6	1.0494982E+0	101.4897393E-6	4.2002143E-3
5.8792500E+6	1.0618972E+0	101.4449005E-6	4.3016592E-3
5.8795000E+6	1.0742524E+0	101.9470951E-6	4.4036063E-3
5.8797500E+6	1.0865021E+0	102.9694199E-6	4.5065757E-3
5.8800000E+6	1.0989293E+0	102.3147733E-6	4.6088905E-3
5.8802500E+6	1.1111548E+0	102.6196772E-6	4.7115102E-3
5.8805000E+6	1.1228826E+0	104.3011324E-6	4.8158113E-3
5.8807510E+6	1.1357460E+0	104.3056163E-6	4.9201169E-3
5.8810000E+6	1.1474483E+0	104.7405527E-6	5.0248575E-3
5.8812500E+6	1.1601332E+0	104.1666160E-6	5.1290241E-3
5.8815000E+6	1.1720533E+0	104.4804876E-6	5.2335046E-3
5.8817500E+6	1.1847535E+0	105.2113602E-6	5.3387159E-3
5.8820000E+6	1.1966367E+0	106.4264918E-6	5.4451424E-3
5.8822500E+6	1.2117151E+0	105.5566190E-6	5.5506991E-3
5.8825000E+6	1.2212413E+0	105.8794584E-6	5.6565785E-3
5.8827500E+6	1.2339955E+0	107.4533004E-6	5.7640318E-3
5.8830000E+6	1.2459176E+0	107.7761398E-6	5.8718079E-3
5.8832500E+6	1.2587043E+0	107.1932354E-6	5.9790012E-3
5.8835000E+6	1.2698281E+0	108.0451727E-6	6.0870464E-3
5.8837500E+6	1.2829351E+0	108.2065924E-6	6.1952529E-3
5.8840000E+6	1.2944754E+0	107.7268172E-6	6.3029798E-3
5.8842500E+6	1.3075775E+0	109.1706267E-6	6.4121504E-3
5.8845000E+6	1.3191663E+0	109.5921115E-6	6.5217425E-3
5.8847500E+6	1.3322694E+0	108.8522712E-6	6.6305948E-3
5.8850000E+6	1.3438635E+0	109.9059831E-6	6.7405008E-3
5.8852500E+6	1.3568819E+0	111.0135016E-6	6.8515143E-3
5.8855000E+6	1.3684507E+0	110.4530165E-6	6.9619673E-3
5.8857500E+6	1.3815956E+0	110.8610496E-6	7.0728283E-3
5.8860000E+6	1.3932205E+0	111.7219547E-6	7.1845503E-3
5.8862500E+6	1.4062723E+0	111.8385356E-6	7.2963888E-3
5.8865000E+6	1.4174139E+0	111.7398902E-6	7.4081287E-3
5.8867500E+6	1.4303774E+0	112.5469887E-6	7.5206757E-3
5.8870000E+6	1.4420331E+0	112.7487633E-6	7.6334245E-3
5.8872500E+6	1.4550795E+0	112.8294732E-6	7.7462539E-3
5.8875000E+6	1.4667085E+0	113.4078938E-6	7.8596618E-3
5.8880000E+6	1.4693800E+0	113.2240547E-6	7.9728859E-3
5.8882500E+6	1.4564013E+0	113.0760866E-6	8.0859620E-3
5.8885000E+6	1.4448151E+0	112.7622150E-6	8.1987242E-3
5.8887500E+6	1.4321670E+0	113.3002807E-6	8.3120245E-3
5.8890000E+6	1.4204039E+0	112.1120523E-6	8.4241365E-3
5.8892500E+6	1.4075976E+0	111.8564711E-6	8.5359930E-3
5.8895000E+6	1.3957085E+0	112.0403102E-6	8.6480333E-3
5.8897500E+6	1.3830024E+0	110.6951461E-6	8.7587284E-3
5.8900000E+6	1.3710782E+0	110.1615643E-6	8.8688900E-3
5.8902500E+6	1.3582977E+0	110.7534365E-6	8.9796434E-3
5.8905000E+6	1.3464433E+0	110.6772105E-6	9.0903207E-3
5.8907500E+6	1.3336308E+0	109.3141109E-6	9.1996348E-3
5.8910000E+6	1.3217626E+0	109.1033685E-6	9.3087381E-3
5.8912500E+6	1.3089095E+0	108.7536258E-6	9.4174918E-3
5.8915000E+6	1.2970783E+0	108.3769798E-6	9.5258687E-3
5.8917510E+6	1.2842635E+0	108.9643682E-6	9.6348331E-3
5.8920000E+6	1.2724849E+0	108.1258825E-6	9.7429590E-3
5.8922500E+6	1.2596911E+0	108.0541404E-6	9.8510131E-3
5.8925000E+6	1.2478612E+0	106.9600736E-6	9.9579732E-3
5.8927500E+6	1.2349707E+0	106.7538151E-6	10.0647270E-3
5.8930000E+6	1.2232010E+0	106.8031378E-6	10.1715302E-3
5.8932500E+6	1.2103956E+0	105.1037470E-6	10.2766339E-3
5.8935000E+6	1.1985591E+0	105.0678760E-6	10.3817018E-3
5.8937500E+6	1.1857318E+0	105.3055217E-6	10.4870073E-3
5.8940000E+6	1.1738752E+0	105.2831023E-6	10.5922904E-3
5.8942500E+6	1.1611424E+0	104.2966485E-6	10.6965871E-3
5.8945000E+6	1.1493237E+0	104.1307450E-6	10.8007178E-3
5.8947500E+6	1.1365468E+0	104.1845515E-6	10.9049023E-3
5.8950000E+6	1.1249192E+0	103.2339689E-6	11.0081363E-3
5.8952500E+6	1.1124385E+0	102.5030963E-6	11.1106394E-3
5.8955000E+6	1.1002411E+0	102.9514844E-6	11.2135909E-3
5.8957500E+6	1.0878349E+0	102.8707745E-6	11.3164617E-3
5.8960000E+6	1.0755693E+0	102.2161280E-6	11.4186778E-3
5.8962500E+6	1.0631541E+0	102.4313542E-6	11.5211092E-3
5.8965000E+6	1.0509541E+0	100.6333181E-6	11.6217425E-3
5.8967500E+6	1.0385238E+0	102.1354181E-6	11.7238779E-3
5.8970000E+6	1.0262551E+0	101.0951578E-6	11.8249730E-3
5.8972500E+6	1.0138119E+0	99.8172519E-6	11.9247903E-3
5.8975000E+6	1.0016488E+0	99.3240250E-6	12.0241143E-3
5.8977500E+6	987.8285643E-3	99.4809608E-6	12.1235953E-3
5.8980000E+6	977.0249707E-3	99.3240250E-6	12.2229193E-3
5.8982500E+6	964.4805791E-3	99.9876393E-6	12.3229070E-3
5.8985000E+6	952.3531220E-3	98.9653146E-6	12.4218723E-3
5.8987500E+6	940.6134464E-3	98.4362167E-6	12.5203085E-3
5.8990000E+6	928.0534622E-3	98.2703131E-6	12.6185788E-3
5.8992500E+6	916.0272904E-3	97.3825048E-6	12.7159613E-3
5.8995000E+6	903.3799350E-3	96.5709224E-6	12.8125322E-3
5.8997500E+6	891.2868434E-3	96.9655039E-6	12.9094977E-3
5.9000000E+6	878.7285819E-3	95.6024042E-6	13.0051001E-3
5.9002500E+6	866.6790433E-3	95.8848887E-6	13.1009850E-3
5.9005000E+6	854.0941906E-3	96.0597600E-6	13.1970448E-3
5.9007500E+6	842.0546348E-3	95.9252436E-6	13.2929700E-3
5.9010000E+6	829.4672643E-3	95.4947911E-6	13.3884648E-3
5.9012500E+6	817.3939173E-3	95.4723716E-6	13.4839372E-3
5.9015000E+6	804.8258939E-3	94.7370152E-6	13.5786742E-3
5.9017500E+6	793.4843801E-3	94.3827887E-6	13.6730570E-3
5.9020000E+6	780.6115293E-3	94.1451430E-6	13.7672021E-3
5.9022500E+6	769.0133349E-3	93.5263675E-6	13.8607285E-3
5.9025000E+6	755.9973685E-3	92.8672371E-6	13.9535957E-3
5.9027500E+6	744.4277090E-3	92.7910111E-6	14.0463867E-3
5.9030000E+6	731.3895243E-3	92.2977842E-6	14.1386845E-3
5.9032500E+6	719.7325819E-3	92.1004935E-6	14.2307850E-3
5.9035000E+6	706.7273050E-3	91.5624278E-6	14.3223475E-3
5.9037500E+6	695.1128997E-3	91.9614932E-6	14.4143089E-3
5.9040000E+6	682.1073578E-3	90.7956843E-6	14.5051046E-3
5.9042510E+6	670.3930808E-3	91.0019428E-6	14.5961066E-3
5.9045000E+6	657.5184631E-3	90.1813926E-6	14.6862880E-3
5.9047500E+6	646.3504107E-3	89.0469708E-6	14.7753349E-3
5.9050000E+6	633.2636374E-3	89.0155837E-6	14.8643505E-3
5.9052500E+6	621.7517100E-3	89.3608425E-6	14.9537114E-3
5.9055000E+6	608.6341492E-3	87.7152583E-6	15.0414266E-3
5.9057500E+6	597.1221776E-3	87.4641610E-6	15.1288908E-3
5.9060000E+6	583.9770096E-3	87.8632264E-6	15.2167540E-3
5.9062500E+6	572.4716637E-3	86.6749980E-6	15.3034290E-3
5.9065010E+6	559.7702866E-3	85.8096091E-6	15.3892386E-3
5.9067500E+6	548.0193031E-3	84.7693488E-6	15.4740080E-3
5.9070000E+6	535.2152715E-3	80.9984053E-6	15.5550064E-3
5.9072500E+6	523.4588990E-3	61.3052020E-6	15.6163116E-3
5.9075000E+6	510.5708532E-3	36.8456337E-6	15.6531572E-3
5.9077500E+6	498.8412929E-3	11.8255803E-6	15.6649828E-3
5.9080000E+6	485.8828378E-3	10.9960624E-6	15.6759788E-3
5.9082500E+6	474.2295616E-3	11.3727083E-6	15.6873516E-3
5.9085000E+6	461.3047651E-3	9.1262842E-6	15.6964778E-3
5.9087500E+6	449.5471118E-3	7.2385705E-6	15.7037164E-3
5.9090000E+6	436.6904719E-3	8.5837346E-6	15.7123001E-3
5.9092500E+6	424.9897997E-3	7.3775708E-6	15.7196777E-3
5.9095000E+6	412.6455932E-3	6.5794400E-6	15.7262572E-3
5.9097500E+6	400.6237060E-3	6.3462783E-6	15.7326034E-3
5.9100000E+6	387.9684439E-3	6.0682777E-6	15.7386717E-3
5.9102500E+6	375.9648879E-3	5.0549207E-6	15.7437266E-3
5.9105000E+6	363.4169625E-3	4.6424037E-6	15.7483690E-3
5.9107500E+6	351.3323518E-3	3.9832732E-6	15.7523523E-3
5.9110010E+6	338.7422427E-3	3.0999488E-6	15.7554523E-3
5.9112500E+6	326.7228291E-3	2.1807532E-6	15.7576330E-3
5.9115010E+6	314.1178342E-3	2.0731401E-6	15.7597062E-3
5.9117500E+6	302.1294731E-3	1.7816879E-6	15.7614878E-3
5.9120000E+6	289.5107850E-3	2.8174643E-6	15.7643053E-3
5.9122500E+6	277.4785175E-3	1.5574938E-6	15.7658628E-3
5.9125000E+6	264.9209186E-3	2.3870117E-6	15.7682498E-3
5.9127500E+6	252.8777407E-3	1.5216228E-6	15.7697714E-3
5.9130000E+6	240.2296786E-3	997.0087794E-9	15.7707684E-3
5.9132500E+6	228.2364587E-3	1.6471715E-6	15.7724156E-3
5.9135000E+6	216.2264536E-3	822.1374386E-9	15.7732378E-3
5.9137500E+6	203.8968237E-3	907.3311687E-9	15.7741451E-3
5.9140000E+6	191.7341178E-3	1.4184935E-6	15.7755636E-3
5.9142500E+6	179.2933525E-3	997.0087794E-9	15.7765606E-3
5.9145000E+6	167.0189369E-3	2.0596885E-6	15.7786203E-3
5.9147500E+6	154.6914272E-3	1.4140097E-6	15.7800343E-3
5.9150000E+6	142.4526581E-3	925.2666909E-9	15.7809595E-3
5.9152500E+6	130.0372471E-3	512.7496816E-9	15.7814723E-3
5.9155000E+6	117.8967153E-3	1.2660416E-6	15.7827383E-3
5.9157500E+6	105.4173441E-3	154.0392389E-9	15.7828924E-3
5.9160000E+6	91.7556870E-3	584.4917702E-9	15.7834769E-3
5.9162500E+6	80.8130427E-3	310.9750576E-9	15.7837878E-3
5.9165000E+6	68.5540655E-3	503.7819206E-9	15.7842916E-3
5.9167500E+6	56.1845338E-3	-38.7676241E-9	15.7842529E-3
5.9170000E+6	43.9079145E-3	553.1046065E-9	15.7848060E-3
5.9172500E+6	31.5497493E-3	239.2329690E-9	15.7850452E-3
5.9175000E+6	20.1562294E-3	750.3953500E-9	15.7857956E-3
5.9177500E+6	7.2560148E-3	423.0720709E-9	15.7862187E-3
