Acquisition Time (ms)	Shunt Voltage (V)	Sample Voltage (V)	Integrated Sample Voltage (V)		
milliseconds	Volts	Volts	Volts		
4.1250000E+6	3.6022642E-3	1.4453968E-6	1.4453968E-6
4.1252500E+6	16.0398700E-3	1.7861718E-6	3.2315686E-6
4.1255000E+6	27.9653512E-3	705.5565446E-9	3.9371251E-6
4.1257500E+6	40.7582608E-3	1.6113004E-6	5.5484255E-6
4.1260000E+6	52.6107736E-3	1.1449768E-6	6.6934024E-6
4.1262500E+6	65.3059212E-3	2.0596885E-6	8.7530908E-6
4.1265000E+6	77.2423622E-3	3.2658523E-6	12.0189432E-6
4.1267500E+6	90.0267972E-3	4.1222735E-6	16.1412167E-6
4.1270000E+6	101.9012877E-3	5.0504368E-6	21.1916535E-6
4.1272500E+6	114.7000080E-3	6.2969556E-6	27.4886090E-6
4.1275000E+6	129.5934121E-3	8.4806054E-6	35.9692144E-6
4.1277500E+6	139.3019504E-3	8.8303481E-6	44.7995625E-6
4.1280010E+6	151.3197739E-3	27.5191621E-6	72.3187247E-6
4.1282500E+6	163.4451107E-3	75.5639421E-6	147.8826667E-6
4.1285000E+6	175.8943128E-3	81.8099877E-6	229.6926544E-6
4.1287500E+6	188.2782294E-3	82.9847644E-6	312.6774187E-6
4.1290000E+6	200.3623984E-3	83.0161515E-6	395.6935703E-6
4.1292500E+6	212.7633653E-3	83.3031199E-6	478.9966901E-6
4.1295000E+6	224.9674157E-3	83.1551518E-6	562.1518420E-6
4.1297500E+6	237.4261588E-3	83.4735073E-6	645.6253493E-6
4.1300000E+6	249.7306993E-3	84.3927028E-6	730.0180522E-6
4.1302500E+6	262.0442950E-3	83.7649596E-6	813.7830117E-6
4.1305000E+6	274.3452135E-3	84.2088637E-6	897.9918755E-6
4.1307500E+6	286.8005112E-3	84.9800912E-6	982.9719667E-6
4.1310000E+6	298.9893666E-3	85.0518333E-6	1.0680238E-3
4.1312500E+6	311.5107891E-3	85.4239954E-6	1.1534478E-3
4.1315000E+6	323.6717723E-3	85.1863497E-6	1.2386341E-3
4.1317500E+6	336.1537497E-3	85.0787366E-6	1.3237129E-3
4.1320000E+6	348.3549731E-3	85.6257700E-6	1.4093387E-3
4.1322500E+6	360.2346281E-3	86.2266100E-6	1.4955653E-3
4.1325000E+6	372.7520310E-3	86.5539333E-6	1.5821192E-3
4.1327500E+6	384.6801863E-3	87.0381924E-6	1.6691574E-3
4.1330000E+6	397.3810775E-3	86.4777073E-6	1.7556351E-3
4.1332500E+6	409.4061451E-3	88.1322592E-6	1.8437674E-3
4.1335000E+6	422.0612746E-3	87.6300646E-6	1.9313974E-3
4.1337500E+6	434.0411989E-3	87.8228715E-6	2.0192203E-3
4.1340000E+6	446.7146596E-3	88.0156783E-6	2.1072360E-3
4.1342500E+6	458.7740043E-3	88.0650010E-6	2.1953010E-3
4.1345000E+6	471.4363338E-3	88.4909697E-6	2.2837919E-3
4.1347500E+6	483.5059703E-3	88.6613571E-6	2.3724533E-3
4.1350000E+6	496.0780575E-3	88.3026467E-6	2.4607559E-3
4.1352500E+6	508.1692056E-3	89.3249714E-6	2.5500809E-3
4.1355000E+6	520.7178377E-3	88.9079705E-6	2.6389889E-3
4.1357500E+6	532.1552479E-3	89.7016174E-6	2.7286905E-3
4.1360000E+6	545.0341502E-3	90.3203929E-6	2.8190109E-3
4.1362500E+6	556.7135317E-3	90.6656517E-6	2.9096765E-3
4.1365000E+6	569.6858125E-3	90.5311353E-6	3.0002077E-3
4.1367500E+6	581.3367918E-3	91.2933950E-6	3.0915011E-3
4.1370000E+6	594.3840757E-3	91.7328153E-6	3.1832339E-3
4.1372500E+6	606.0375728E-3	91.5355245E-6	3.2747694E-3
4.1375000E+6	619.0343687E-3	92.9300114E-6	3.3676994E-3
4.1377500E+6	630.2089144E-3	91.9704610E-6	3.4596699E-3
4.1380000E+6	643.2367188E-3	92.8313660E-6	3.5525013E-3
4.1382500E+6	655.0168554E-3	93.0824633E-6	3.6455837E-3
4.1385000E+6	667.9359538E-3	93.5846579E-6	3.7391684E-3
4.1387500E+6	679.5061434E-3	93.8536908E-6	3.8330221E-3
4.1390000E+6	692.6771959E-3	93.6877872E-6	3.9267099E-3
4.1392500E+6	704.1622229E-3	94.2617239E-6	4.0209716E-3
4.1395000E+6	717.3136632E-3	95.0419191E-6	4.1160135E-3
4.1397500E+6	728.4106879E-3	94.6876926E-6	4.2107012E-3
4.1400000E+6	740.8376718E-3	95.5844687E-6	4.3062857E-3
4.1402500E+6	753.0137616E-3	96.0642439E-6	4.4023499E-3
4.1405000E+6	765.4690594E-3	95.9790501E-6	4.4983290E-3
4.1407500E+6	777.6337088E-3	96.1763409E-6	4.5945053E-3
4.1410000E+6	790.1780563E-3	97.4183758E-6	4.6919237E-3
4.1412500E+6	802.2620928E-3	97.9116027E-6	4.7898353E-3
4.1415000E+6	814.8448253E-3	97.6963764E-6	4.8875316E-3
4.1417500E+6	826.9352225E-3	97.2973110E-6	4.9848290E-3
4.1420000E+6	839.4693663E-3	97.9250543E-6	5.0827540E-3
4.1422500E+6	851.6147570E-3	97.2524722E-6	5.1800065E-3
4.1425000E+6	863.4047881E-3	97.6874086E-6	5.2776939E-3
4.1427500E+6	875.9830151E-3	99.4854447E-6	5.3771793E-3
4.1430000E+6	888.1140942E-3	99.6109934E-6	5.4767903E-3
4.1432510E+6	900.6856071E-3	99.6917032E-6	5.5764820E-3
4.1435000E+6	912.1399350E-3	100.1311235E-6	5.6766132E-3
4.1437500E+6	924.9610168E-3	99.9876393E-6	5.7766008E-3
4.1440000E+6	936.6700374E-3	100.9382220E-6	5.8775390E-3
4.1442500E+6	949.6402421E-3	100.7140280E-6	5.9782530E-3
4.1445000E+6	961.3311082E-3	101.0592868E-6	6.0793123E-3
4.1447500E+6	974.4108141E-3	101.6780623E-6	6.1809904E-3
4.1450000E+6	985.9670013E-3	101.4718038E-6	6.2824622E-3
4.1452500E+6	999.0507268E-3	101.1893193E-6	6.3836515E-3
4.1455000E+6	1.0107719E+0	102.6420966E-6	6.4862936E-3
4.1457500E+6	1.0237766E+0	102.2519990E-6	6.5885456E-3
4.1460000E+6	1.0352698E+0	103.2115495E-6	6.6917572E-3
4.1462500E+6	1.0479808E+0	103.5433566E-6	6.7953005E-3
4.1465000E+6	1.0594927E+0	104.2383581E-6	6.8995389E-3
4.1467500E+6	1.0726425E+0	104.0859062E-6	7.0036248E-3
4.1470000E+6	1.0842106E+0	105.4086509E-6	7.1090334E-3
4.1472500E+6	1.0973448E+0	105.3055217E-6	7.2143390E-3
4.1475000E+6	1.1088869E+0	104.7271011E-6	7.3190661E-3
4.1477500E+6	1.1220448E+0	106.2605882E-6	7.4253266E-3
4.1480000E+6	1.1335467E+0	106.4937500E-6	7.5318204E-3
4.1482500E+6	1.1462026E+0	107.2963646E-6	7.6391168E-3
4.1485000E+6	1.1579724E+0	106.4758145E-6	7.7455926E-3
4.1487500E+6	1.1708823E+0	107.4488166E-6	7.8530414E-3
4.1490000E+6	1.1826501E+0	107.2066870E-6	7.9602481E-3
4.1492500E+6	1.1956407E+0	107.2918807E-6	8.0675400E-3
4.1495010E+6	1.2105163E+0	107.9465273E-6	8.1754865E-3
4.1497500E+6	1.2203107E+0	108.5025285E-6	8.2839890E-3
4.1500000E+6	1.2320060E+0	108.1976246E-6	8.3921866E-3
4.1502500E+6	1.2449362E+0	110.1884676E-6	8.5023751E-3
4.1505000E+6	1.2565304E+0	109.4755306E-6	8.6118506E-3
4.1507500E+6	1.2690685E+0	110.0315317E-6	8.7218822E-3
4.1510000E+6	1.2811835E+0	110.6189201E-6	8.8325011E-3
4.1512500E+6	1.2938254E+0	110.9910822E-6	8.9434922E-3
4.1515000E+6	1.3058183E+0	111.2242440E-6	9.0547164E-3
4.1517500E+6	1.3184678E+0	111.4708574E-6	9.1661873E-3
4.1520000E+6	1.3305645E+0	111.6053738E-6	9.2777926E-3
4.1522500E+6	1.3432171E+0	112.3586657E-6	9.3901513E-3
4.1525000E+6	1.3553147E+0	112.4079884E-6	9.5025593E-3
4.1527500E+6	1.3678488E+0	111.6546965E-6	9.6142140E-3
4.1530000E+6	1.3799540E+0	113.9818305E-6	9.7281958E-3
4.1532500E+6	1.3925763E+0	113.1478287E-6	9.8413437E-3
4.1535000E+6	1.4046886E+0	114.0311532E-6	9.9553748E-3
4.1537500E+6	1.4173448E+0	113.0760866E-6	10.0684509E-3
4.1540000E+6	1.4293515E+0	113.9414756E-6	10.1823924E-3
4.1542510E+6	1.4420964E+0	115.2418009E-6	10.2976342E-3
4.1545000E+6	1.4540719E+0	115.1431556E-6	10.4127773E-3
4.1547500E+6	1.4660460E+0	116.3986421E-6	10.5291760E-3
4.1550000E+6	1.4785040E+0	116.1654803E-6	10.6453415E-3
4.1552500E+6	1.4749731E+0	115.9637057E-6	10.7613052E-3
4.1555000E+6	1.4628247E+0	115.4435756E-6	10.8767487E-3
4.1557500E+6	1.4506145E+0	115.3538979E-6	10.9921026E-3
4.1560000E+6	1.4381489E+0	115.3852851E-6	11.1074879E-3
4.1562500E+6	1.4258914E+0	113.8114430E-6	11.2212994E-3
4.1565000E+6	1.4134896E+0	113.7755720E-6	11.3350749E-3
4.1567500E+6	1.4012294E+0	114.4302186E-6	11.4495052E-3
4.1570000E+6	1.3887256E+0	114.0132177E-6	11.5635184E-3
4.1572500E+6	1.3765068E+0	112.1568911E-6	11.6756753E-3
4.1575000E+6	1.3640310E+0	112.4662789E-6	11.7881415E-3
4.1577500E+6	1.3517780E+0	112.2465687E-6	11.9003881E-3
4.1580000E+6	1.3393347E+0	111.5964061E-6	12.0119845E-3
4.1582500E+6	1.3270527E+0	111.7309225E-6	12.1237154E-3
4.1585000E+6	1.3146157E+0	111.6008899E-6	12.2353163E-3
4.1587500E+6	1.3023604E+0	110.7399849E-6	12.3460563E-3
4.1590000E+6	1.2899559E+0	110.7175655E-6	12.4567739E-3
4.1592500E+6	1.2776548E+0	110.5830491E-6	12.5673569E-3
4.1595000E+6	1.2652454E+0	109.6862729E-6	12.6770432E-3
4.1597500E+6	1.2531518E+0	109.6773052E-6	12.7867205E-3
4.1600010E+6	1.2405660E+0	108.7132709E-6	12.8954338E-3
4.1602500E+6	1.2290306E+0	108.6953353E-6	13.0041291E-3
4.1605000E+6	1.2161468E+0	108.6953353E-6	13.1128244E-3
4.1607500E+6	1.2043900E+0	107.3950100E-6	13.2202195E-3
4.1610000E+6	1.1915347E+0	107.3994939E-6	13.3276189E-3
4.1612500E+6	1.1797957E+0	107.6999139E-6	13.4353189E-3
4.1615000E+6	1.1669221E+0	105.8525551E-6	13.5411714E-3
4.1617500E+6	1.1548989E+0	106.3233625E-6	13.6474948E-3
4.1620000E+6	1.1421519E+0	106.1529751E-6	13.7536478E-3
4.1622500E+6	1.1303808E+0	106.4892661E-6	13.8601370E-3
4.1625000E+6	1.1174578E+0	105.8704906E-6	13.9660075E-3
4.1627500E+6	1.1056208E+0	105.1530697E-6	14.0711606E-3
4.1630000E+6	1.0928078E+0	105.2741345E-6	14.1764347E-3
4.1632510E+6	1.0808461E+0	104.5298103E-6	14.2809645E-3
4.1635000E+6	1.0684318E+0	105.0409727E-6	14.3860055E-3
4.1637500E+6	1.0569436E+0	103.4581629E-6	14.4894637E-3
4.1640000E+6	1.0437943E+0	103.4491951E-6	14.5929129E-3
4.1642500E+6	1.0325850E+0	103.8661960E-6	14.6967791E-3
4.1645000E+6	1.0195399E+0	102.4806769E-6	14.7992597E-3
4.1647500E+6	1.0078887E+0	102.2340635E-6	14.9014938E-3
4.1650010E+6	993.8224135E-3	102.5703545E-6	15.0040641E-3
4.1652500E+6	983.2153830E-3	101.9201919E-6	15.1059843E-3
4.1655000E+6	970.1895222E-3	102.0681599E-6	15.2080525E-3
4.1657500E+6	958.5405307E-3	101.5928686E-6	15.3096454E-3
4.1660000E+6	945.5720486E-3	100.9247704E-6	15.4105701E-3
4.1662500E+6	933.8361276E-3	100.4360274E-6	15.5110062E-3
4.1665000E+6	920.7724560E-3	100.4629307E-6	15.6114691E-3
4.1667500E+6	909.1869831E-3	100.1625107E-6	15.7116316E-3
4.1670000E+6	896.1005190E-3	98.9742823E-6	15.8106059E-3
4.1672500E+6	884.4864671E-3	98.4541522E-6	15.9090600E-3
4.1675000E+6	871.4937790E-3	98.2344421E-6	16.0072945E-3
4.1677500E+6	859.7892198E-3	97.5618600E-6	16.1048563E-3
4.1680000E+6	846.8700773E-3	98.4900232E-6	16.2033464E-3
4.1682500E+6	835.3404812E-3	98.0909579E-6	16.3014373E-3
4.1685000E+6	822.6660046E-3	96.7682131E-6	16.3982055E-3
4.1687500E+6	810.7244211E-3	96.9655039E-6	16.4951710E-3
4.1690000E+6	797.9778566E-3	97.1224397E-6	16.5922935E-3
4.1692500E+6	786.0903390E-3	96.6381806E-6	16.6889317E-3
4.1695000E+6	773.3234556E-3	96.7323421E-6	16.7856640E-3
4.1697500E+6	761.4077567E-3	95.6024042E-6	16.8812664E-3
4.1700000E+6	748.6910079E-3	95.4634039E-6	16.9767298E-3
4.1702500E+6	736.7739838E-3	94.4993696E-6	17.0712292E-3
4.1705000E+6	724.0658043E-3	95.3019842E-6	17.1665312E-3
4.1707500E+6	712.1392833E-3	95.0643385E-6	17.2615955E-3
4.1710000E+6	699.3318946E-3	94.4814341E-6	17.3560769E-3
4.1712500E+6	687.4125295E-3	94.1585947E-6	17.4502355E-3
4.1715000E+6	674.6948089E-3	93.7595293E-6	17.5439951E-3
4.1717500E+6	662.7469531E-3	92.4143651E-6	17.6364094E-3
4.1720000E+6	649.9502981E-3	92.7416884E-6	17.7291511E-3
4.1722500E+6	638.0437427E-3	93.2752702E-6	17.8224264E-3
4.1725000E+6	625.2974432E-3	93.0017535E-6	17.9154281E-3
4.1727500E+6	613.3546229E-3	92.4457523E-6	18.0078739E-3
4.1730010E+6	600.5709985E-3	91.6341699E-6	18.0995081E-3
4.1732500E+6	588.7139151E-3	91.1274914E-6	18.1906356E-3
4.1735000E+6	576.4154703E-3	91.2306207E-6	18.2818662E-3
4.1737500E+6	564.2894267E-3	91.1678463E-6	18.3730340E-3
4.1740000E+6	551.8908451E-3	90.3607478E-6	18.4633948E-3
4.1742500E+6	539.5766752E-3	90.1231022E-6	18.5535179E-3
4.1745000E+6	527.1814507E-3	90.0827472E-6	18.6436006E-3
4.1747500E+6	514.9548728E-3	89.5401977E-6	18.7331408E-3
4.1750000E+6	502.4660047E-3	89.7957789E-6	18.8229366E-3
4.1752500E+6	490.2599666E-3	89.1859711E-6	18.9121226E-3
4.1755000E+6	477.8323644E-3	88.4730341E-6	19.0005956E-3
4.1757500E+6	465.6086135E-3	87.5134837E-6	19.0881091E-3
4.1760000E+6	453.1841032E-3	88.6344538E-6	19.1767435E-3
4.1762500E+6	440.9039895E-3	88.2578079E-6	19.2650013E-3
4.1765000E+6	428.4522697E-3	87.8766780E-6	19.3528780E-3
4.1767500E+6	416.2548008E-3	87.4282900E-6	19.4403063E-3
4.1770000E+6	403.8126220E-3	87.4507094E-6	19.5277570E-3
4.1772500E+6	391.5528713E-3	87.6435162E-6	19.6154005E-3
4.1775000E+6	379.1558358E-3	86.6211915E-6	19.7020217E-3
4.1777500E+6	366.9131353E-3	85.9172222E-6	19.7879390E-3
4.1780000E+6	355.1776560E-3	85.7154476E-6	19.8736544E-3
4.1782500E+6	342.5192136E-3	84.9621557E-6	19.9586166E-3
4.1785000E+6	330.5279814E-3	85.2984467E-6	20.0439150E-3
4.1787500E+6	317.8798309E-3	84.1416055E-6	20.1280566E-3
4.1790010E+6	305.7935859E-3	84.1416055E-6	20.2121982E-3
4.1792500E+6	293.2069221E-3	85.0473494E-6	20.2972456E-3
4.1795010E+6	281.2045145E-3	84.1012506E-6	20.3813468E-3
4.1797500E+6	268.5667885E-3	85.4239954E-6	20.4667708E-3
4.1800000E+6	256.6206113E-3	84.5227354E-6	20.5512935E-3
4.1802500E+6	243.9118575E-3	83.3883136E-6	20.6346819E-3
4.1805000E+6	231.8087831E-3	83.8591211E-6	20.7185410E-3
4.1807500E+6	219.2417757E-3	83.0161515E-6	20.8015571E-3
4.1810000E+6	207.1052193E-3	83.2403455E-6	20.8847975E-3
4.1812500E+6	194.5292451E-3	83.1955067E-6	20.9679930E-3
4.1815000E+6	183.2564178E-3	82.7650542E-6	21.0507580E-3
4.1817500E+6	170.2239313E-3	80.3392748E-6	21.1310973E-3
4.1820000E+6	158.6278572E-3	59.5116498E-6	21.1906090E-3
4.1822500E+6	145.6328281E-3	8.7630899E-6	21.1993721E-3
4.1825000E+6	134.0210289E-3	7.7990556E-6	21.2071711E-3
4.1827500E+6	120.9603168E-3	6.8170857E-6	21.2139882E-3
4.1830000E+6	109.3804536E-3	4.1536607E-6	21.2181419E-3
4.1832500E+6	95.4900358E-3	4.0370798E-6	21.2221789E-3
4.1835000E+6	84.6654731E-3	2.2076565E-6	21.2243866E-3
4.1837510E+6	71.5496920E-3	1.0104604E-6	21.2253971E-3
4.1840000E+6	60.0618919E-3	2.2435276E-6	21.2276406E-3
4.1842500E+6	47.3117129E-3	862.4923634E-9	21.2285031E-3
4.1845000E+6	35.7846819E-3	1.5574938E-6	21.2300606E-3
4.1847500E+6	22.6909679E-3	584.4917702E-9	21.2306451E-3
4.1850000E+6	11.1614339E-3	754.8792305E-9	21.2313999E-3
