Acquisition Time (ms)	Shunt Voltage (V)	Sample Voltage (V)	Integrated Sample Voltage (V)		
milliseconds	Volts	Volts	Volts		
2.8922500E+6	8.5064683E-3	9.7450597E-6	9.7450597E-6
2.8925000E+6	21.5668962E-3	17.6097862E-6	27.3548459E-6
2.8927500E+6	32.9452369E-3	54.2027352E-6	81.5575811E-6
2.8930000E+6	45.6955053E-3	79.8729513E-6	161.4305323E-6
2.8932500E+6	57.6076712E-3	83.1417002E-6	244.5722325E-6
2.8935010E+6	70.4783721E-3	83.4779912E-6	328.0502237E-6
2.8937500E+6	82.3358284E-3	82.7919575E-6	410.8421812E-6
2.8940000E+6	95.1314914E-3	82.2673435E-6	493.1095247E-6
2.8942500E+6	107.0036710E-3	83.3076038E-6	576.4171285E-6
2.8945000E+6	119.3654835E-3	83.2268939E-6	659.6440224E-6
2.8947500E+6	134.1754524E-3	83.8546372E-6	743.4986596E-6
2.8950000E+6	143.9679608E-3	83.6977014E-6	827.1963609E-6
2.8952500E+6	156.1866319E-3	83.9577664E-6	911.1541274E-6
2.8955000E+6	168.6434315E-3	83.5856044E-6	994.7397317E-6
2.8957500E+6	180.9169636E-3	82.9175062E-6	1.0776572E-3
2.8960000E+6	193.2881148E-3	84.5182515E-6	1.1621755E-3
2.8962500E+6	205.6173471E-3	84.1416055E-6	1.2463171E-3
2.8965000E+6	218.1114275E-3	84.5137676E-6	1.3308309E-3
2.8967500E+6	230.3156104E-3	85.2401563E-6	1.4160710E-3
2.8970000E+6	242.7860590E-3	85.0473494E-6	1.5011184E-3
2.8972500E+6	255.0428943E-3	84.9845751E-6	1.5861029E-3
2.8975000E+6	267.4772989E-3	86.3387070E-6	1.6724417E-3
2.8977500E+6	279.4886733E-3	86.1189969E-6	1.7585606E-3
2.8980000E+6	291.4799939E-3	86.7512240E-6	1.8453119E-3
2.8982500E+6	304.1277910E-3	86.4328685E-6	1.9317447E-3
2.8985000E+6	316.1794939E-3	86.5225461E-6	2.0182673E-3
2.8987500E+6	328.8883802E-3	86.0562225E-6	2.1043235E-3
2.8990000E+6	340.9241814E-3	87.5717741E-6	2.1918953E-3
2.8992500E+6	353.5809011E-3	87.3699995E-6	2.2792653E-3
2.8995000E+6	365.6573843E-3	87.6928389E-6	2.3669581E-3
2.8997500E+6	378.2657804E-3	88.4192276E-6	2.4553773E-3
2.9000000E+6	390.4205354E-3	88.5133891E-6	2.5438907E-3
2.9002500E+6	402.6737928E-3	87.8363231E-6	2.6317271E-3
2.9005000E+6	414.2577640E-3	88.2981628E-6	2.7200252E-3
2.9007500E+6	427.2945793E-3	89.4819073E-6	2.8095071E-3
2.9010000E+6	438.9770970E-3	89.6926496E-6	2.8991998E-3
2.9012500E+6	451.9773825E-3	89.5446816E-6	2.9887445E-3
2.9015000E+6	463.7109183E-3	89.1097452E-6	3.0778542E-3
2.9017500E+6	476.7596157E-3	90.3293607E-6	3.1681836E-3
2.9020000E+6	488.3472089E-3	90.9436523E-6	3.2591272E-3
2.9022500E+6	501.4734273E-3	90.7598132E-6	3.3498870E-3
2.9025000E+6	513.1250692E-3	91.4906857E-6	3.4413777E-3
2.9027500E+6	526.1610011E-3	91.0467816E-6	3.5324245E-3
2.9030000E+6	537.3100156E-3	91.8045574E-6	3.6242291E-3
2.9032500E+6	550.4322586E-3	91.1902657E-6	3.7154193E-3
2.9035000E+6	562.0499326E-3	91.8045574E-6	3.8072239E-3
2.9037500E+6	575.1682885E-3	92.0556547E-6	3.8992795E-3
2.9040000E+6	586.3216760E-3	91.7731702E-6	3.9910527E-3
2.9042500E+6	598.7356734E-3	92.2081066E-6	4.0832608E-3
2.9045000E+6	610.9109240E-3	93.4322060E-6	4.1766930E-3
2.9047500E+6	623.5013865E-3	93.8895618E-6	4.2705826E-3
2.9050000E+6	635.6163872E-3	93.3963350E-6	4.3639789E-3
2.9052500E+6	648.1927590E-3	95.1271128E-6	4.4591060E-3
2.9055000E+6	660.3689814E-3	94.4500469E-6	4.5535561E-3
2.9057500E+6	672.9260061E-3	94.7818540E-6	4.6483379E-3
2.9060000E+6	685.0670238E-3	94.6024988E-6	4.7429404E-3
2.9062500E+6	697.6239160E-3	95.3557908E-6	4.8382962E-3
2.9065000E+6	709.7740330E-3	95.4320167E-6	4.9337282E-3
2.9067500E+6	722.3021695E-3	95.9745663E-6	5.0297028E-3
2.9070000E+6	734.4779502E-3	95.8714370E-6	5.1255742E-3
2.9072500E+6	747.0784396E-3	96.4139866E-6	5.2219882E-3
2.9075000E+6	759.2003752E-3	97.8398606E-6	5.3198281E-3
2.9077500E+6	771.7697237E-3	96.7233743E-6	5.4165515E-3
2.9080000E+6	783.9430750E-3	97.2928271E-6	5.5138443E-3
2.9082500E+6	796.4270842E-3	97.4407952E-6	5.6112851E-3
2.9085000E+6	808.3368642E-3	98.8307982E-6	5.7101159E-3
2.9087500E+6	820.4350797E-3	99.4316382E-6	5.8095475E-3
2.9090000E+6	832.9697536E-3	98.8801209E-6	5.9084276E-3
2.9092500E+6	845.1421772E-3	100.6422859E-6	6.0090699E-3
2.9095000E+6	857.6307803E-3	99.1267343E-6	6.1081967E-3
2.9097500E+6	869.8249363E-3	100.1669946E-6	6.2083637E-3
2.9100000E+6	882.4168565E-3	100.2028656E-6	6.3085665E-3
2.9102500E+6	894.5261590E-3	100.6871247E-6	6.4092536E-3
2.9105000E+6	907.1179908E-3	100.7857701E-6	6.5100394E-3
2.9107500E+6	919.3475282E-3	100.7678346E-6	6.6108072E-3
2.9110000E+6	931.8301681E-3	102.1488698E-6	6.7129561E-3
2.9112500E+6	944.0643876E-3	103.0097748E-6	6.8159659E-3
2.9115000E+6	956.5635477E-3	101.8215465E-6	6.9177874E-3
2.9117500E+6	968.8892463E-3	102.8259357E-6	7.0206134E-3
2.9120000E+6	981.3187038E-3	103.3191626E-6	7.1239325E-3
2.9122510E+6	992.8410999E-3	103.3505497E-6	7.2272831E-3
2.9125000E+6	1.0056370E+0	103.4716145E-6	7.3307547E-3
2.9127500E+6	1.0174318E+0	103.6016471E-6	7.4343564E-3
2.9130000E+6	1.0303744E+0	104.1441966E-6	7.5385005E-3
2.9132500E+6	1.0421639E+0	104.8526497E-6	7.6433532E-3
2.9135000E+6	1.0551235E+0	104.9916500E-6	7.7483448E-3
2.9137500E+6	1.0669108E+0	105.0992632E-6	7.8534441E-3
2.9140000E+6	1.0798629E+0	105.7763291E-6	7.9592204E-3
2.9142500E+6	1.0915624E+0	106.1036524E-6	8.0653241E-3
2.9145000E+6	1.1046400E+0	106.2112655E-6	8.1715354E-3
2.9147500E+6	1.1163218E+0	106.3682013E-6	8.2779036E-3
2.9150000E+6	1.1293194E+0	106.6641375E-6	8.3845677E-3
2.9152500E+6	1.1410957E+0	107.0273318E-6	8.4915950E-3
2.9155000E+6	1.1540746E+0	107.4936554E-6	8.5990887E-3
2.9157500E+6	1.1658056E+0	108.0765598E-6	8.7071652E-3
2.9160000E+6	1.1787443E+0	108.7446580E-6	8.8159099E-3
2.9162500E+6	1.1905348E+0	109.9239186E-6	8.9258338E-3
2.9165000E+6	1.2049923E+0	109.5831437E-6	9.0354170E-3
2.9167500E+6	1.2145809E+0	109.2154655E-6	9.1446324E-3
2.9170000E+6	1.2277904E+0	110.3857583E-6	9.2550182E-3
2.9172500E+6	1.2393280E+0	109.9866929E-6	9.3650049E-3
2.9175000E+6	1.2525522E+0	110.9148562E-6	9.4759197E-3
2.9177500E+6	1.2640746E+0	110.5426941E-6	9.5864624E-3
2.9180000E+6	1.2772895E+0	111.7847290E-6	9.6982472E-3
2.9182500E+6	1.2889059E+0	110.9731467E-6	9.8092203E-3
2.9185000E+6	1.3019992E+0	110.9910822E-6	9.9202114E-3
2.9187500E+6	1.3135644E+0	112.7936022E-6	10.0330050E-3
2.9190000E+6	1.3267111E+0	112.7039245E-6	10.1457089E-3
2.9192500E+6	1.3382598E+0	112.9819251E-6	10.2586908E-3
2.9195000E+6	1.3514595E+0	112.9864090E-6	10.3716772E-3
2.9197500E+6	1.3630029E+0	113.5693135E-6	10.4852466E-3
2.9200000E+6	1.3762146E+0	114.0580565E-6	10.5993046E-3
2.9202500E+6	1.3878261E+0	114.6813159E-6	10.7139859E-3
2.9205000E+6	1.4005844E+0	114.9638003E-6	10.8289497E-3
2.9207500E+6	1.4122783E+0	115.7708988E-6	10.9447206E-3
2.9210000E+6	1.4252535E+0	115.3583818E-6	11.0600790E-3
2.9212500E+6	1.4369626E+0	115.9009314E-6	11.1759799E-3
2.9215000E+6	1.4499725E+0	116.4031260E-6	11.2923831E-3
2.9217510E+6	1.4617226E+0	117.1967728E-6	11.4095798E-3
2.9220000E+6	1.4746991E+0	117.1250308E-6	11.5267049E-3
2.9225000E+6	1.4714498E+0	117.4613218E-6	11.6441662E-3
2.9227500E+6	1.4597108E+0	116.8201269E-6	11.7609863E-3
2.9230000E+6	1.4473179E+0	117.4209669E-6	11.8784073E-3
2.9232500E+6	1.4349967E+0	116.5107391E-6	11.9949180E-3
2.9235000E+6	1.4225498E+0	115.3180269E-6	12.1102361E-3
2.9237500E+6	1.4105396E+0	115.9098991E-6	12.2261460E-3
2.9240000E+6	1.3977836E+0	115.4794466E-6	12.3416254E-3
2.9242500E+6	1.3857760E+0	115.6453502E-6	12.4572708E-3
2.9245000E+6	1.3730316E+0	114.3270893E-6	12.5715978E-3
2.9247500E+6	1.3610133E+0	113.7935075E-6	12.6853914E-3
2.9250000E+6	1.3483598E+0	112.9908929E-6	12.7983822E-3
2.9252500E+6	1.3362801E+0	112.6321825E-6	12.9110144E-3
2.9255000E+6	1.3236573E+0	113.1119577E-6	13.0241264E-3
2.9257500E+6	1.3115356E+0	113.5737974E-6	13.1377002E-3
2.9260000E+6	1.2988830E+0	112.5290532E-6	13.2502292E-3
2.9262500E+6	1.2868282E+0	111.7398902E-6	13.3619691E-3
2.9265000E+6	1.2746139E+0	111.2287278E-6	13.4731979E-3
2.9267500E+6	1.2621069E+0	111.4574058E-6	13.5846553E-3
2.9270000E+6	1.2499800E+0	110.5830491E-6	13.6952383E-3
2.9272500E+6	1.2376213E+0	110.5471780E-6	13.8057855E-3
2.9275000E+6	1.2252627E+0	109.4710467E-6	13.9152565E-3
2.9277500E+6	1.2129241E+0	110.1032738E-6	14.0253598E-3
2.9280000E+6	1.2005891E+0	108.9778198E-6	14.1343376E-3
2.9282500E+6	1.1881637E+0	109.2827237E-6	14.2436203E-3
2.9285000E+6	1.1758737E+0	108.3052377E-6	14.3519256E-3
2.9287500E+6	1.1634669E+0	108.3366249E-6	14.4602622E-3
2.9290000E+6	1.1510958E+0	107.7223333E-6	14.5679845E-3
2.9292500E+6	1.1387230E+0	106.4489112E-6	14.6744335E-3
2.9295000E+6	1.1263697E+0	107.2918807E-6	14.7817253E-3
2.9297500E+6	1.1140191E+0	106.2426527E-6	14.8879680E-3
2.9300000E+6	1.1017157E+0	106.1574590E-6	14.9941254E-3
2.9302510E+6	1.0895678E+0	106.0588136E-6	15.1001843E-3
2.9305000E+6	1.0777157E+0	105.7404581E-6	15.2059247E-3
2.9307500E+6	1.0648759E+0	104.8974885E-6	15.3108222E-3
2.9310000E+6	1.0529566E+0	104.1666160E-6	15.4149888E-3
2.9312500E+6	1.0401560E+0	104.8705853E-6	15.5198594E-3
2.9315000E+6	1.0281992E+0	105.4176187E-6	15.6252770E-3
2.9317500E+6	1.0154014E+0	103.9962285E-6	15.7292733E-3
2.9320000E+6	1.0035149E+0	103.7496151E-6	15.8330229E-3
2.9322500E+6	989.9241477E-3	103.3864208E-6	15.9364093E-3
2.9325000E+6	978.7416070E-3	102.7183226E-6	16.0391276E-3
2.9327510E+6	965.8950383E-3	102.8259357E-6	16.1419536E-3
2.9330000E+6	954.0292972E-3	101.8932886E-6	16.2438468E-3
2.9332500E+6	941.4605671E-3	101.7677399E-6	16.3456146E-3
2.9335000E+6	929.9861412E-3	100.7319635E-6	16.4463465E-3
2.9337500E+6	916.8733068E-3	101.3552229E-6	16.5477018E-3
2.9340010E+6	905.2417630E-3	100.9561575E-6	16.6486579E-3
2.9342500E+6	892.1307837E-3	100.7633507E-6	16.7494213E-3
2.9345000E+6	880.5334728E-3	99.9562522E-6	16.8493775E-3
2.9347500E+6	867.4252764E-3	99.6961871E-6	16.9490737E-3
2.9350000E+6	855.7920099E-3	99.4092188E-6	17.0484829E-3
2.9352500E+6	842.6732123E-3	98.4093134E-6	17.1468922E-3
2.9355000E+6	831.0275777E-3	98.4631200E-6	17.2453554E-3
2.9357510E+6	818.0088727E-3	98.9249597E-6	17.3442803E-3
2.9360000E+6	806.7838832E-3	97.9788609E-6	17.4422592E-3
2.9362500E+6	793.7668125E-3	98.7052495E-6	17.5409644E-3
2.9365010E+6	782.1643777E-3	98.0416352E-6	17.6390061E-3
2.9367500E+6	769.0389544E-3	96.2211797E-6	17.7352273E-3
2.9370000E+6	757.4837831E-3	96.8175358E-6	17.8320448E-3
2.9372500E+6	744.3429439E-3	96.8265036E-6	17.9288713E-3
2.9375000E+6	732.7175399E-3	96.8713424E-6	18.0257426E-3
2.9377500E+6	719.7083318E-3	95.6337913E-6	18.1213764E-3
2.9380000E+6	708.0206018E-3	95.8131466E-6	18.2171896E-3
2.9382500E+6	695.3622919E-3	96.2929218E-6	18.3134825E-3
2.9385000E+6	683.3987552E-3	94.8984349E-6	18.4083809E-3
2.9387500E+6	670.7191105E-3	95.1495323E-6	18.5035305E-3
2.9390000E+6	658.8400739E-3	94.3200144E-6	18.5978505E-3
2.9392500E+6	646.0557869E-3	93.9568200E-6	18.6918073E-3
2.9395000E+6	634.1488781E-3	93.0421084E-6	18.7848494E-3
2.9397500E+6	621.3847775E-3	93.4142705E-6	18.8782637E-3
2.9400000E+6	609.4146151E-3	92.8179144E-6	18.9710816E-3
2.9402500E+6	596.6186227E-3	93.3828833E-6	19.0644645E-3
2.9405000E+6	584.6777901E-3	92.4905911E-6	19.1569551E-3
2.9407500E+6	571.8382446E-3	92.9479469E-6	19.2499030E-3
2.9410000E+6	560.0014359E-3	92.0377192E-6	19.3419407E-3
2.9412500E+6	547.1481531E-3	91.1992335E-6	19.4331400E-3
2.9415000E+6	535.2611656E-3	90.7687810E-6	19.5239087E-3
2.9417500E+6	522.4793081E-3	91.0333299E-6	19.6149421E-3
2.9420000E+6	510.5303922E-3	90.6342646E-6	19.7055763E-3
2.9422500E+6	497.7288783E-3	90.1679410E-6	19.7957443E-3
2.9425000E+6	486.0362012E-3	90.4369738E-6	19.8861813E-3
2.9427500E+6	473.6124418E-3	90.1051666E-6	19.9762864E-3
2.9430000E+6	461.4157239E-3	89.8361338E-6	20.0661226E-3
2.9432500E+6	448.9184190E-3	89.5671010E-6	20.1556897E-3
2.9435000E+6	436.6884842E-3	89.0469708E-6	20.2447366E-3
2.9437500E+6	424.2344674E-3	88.6479055E-6	20.3333845E-3
2.9440000E+6	411.9875706E-3	88.3160983E-6	20.4217006E-3
2.9442500E+6	399.5634138E-3	87.8721941E-6	20.5095728E-3
2.9445000E+6	387.2167337E-3	87.8049359E-6	20.5973778E-3
2.9447500E+6	374.7376716E-3	88.0963882E-6	20.6854741E-3
2.9450000E+6	362.5599474E-3	87.9304846E-6	20.7734046E-3
2.9452500E+6	350.0017743E-3	86.8947082E-6	20.8602993E-3
2.9455000E+6	337.7818221E-3	86.4552879E-6	20.9467546E-3
2.9457500E+6	325.3567377E-3	86.3880297E-6	21.0331427E-3
2.9460000E+6	313.4385651E-3	87.0023213E-6	21.1201450E-3
2.9462500E+6	301.3441042E-3	85.5898990E-6	21.2057349E-3
2.9465000E+6	288.7585889E-3	86.4014813E-6	21.2921364E-3
2.9467510E+6	276.6100620E-3	85.7827058E-6	21.3779191E-3
2.9470000E+6	264.0190253E-3	85.0832204E-6	21.4630023E-3
2.9472510E+6	251.9180711E-3	84.6707034E-6	21.5476730E-3
2.9475000E+6	239.3424502E-3	84.6572518E-6	21.6323302E-3
2.9477510E+6	227.2165392E-3	85.0069945E-6	21.7173372E-3
2.9480000E+6	214.5897677E-3	84.1102184E-6	21.8014475E-3
2.9482500E+6	202.5168625E-3	84.4599611E-6	21.8859074E-3
2.9485000E+6	189.8798874E-3	84.3030252E-6	21.9702104E-3
2.9487500E+6	177.7625898E-3	83.3838297E-6	22.0535943E-3
2.9490000E+6	165.1257030E-3	83.5317978E-6	22.1371261E-3
2.9492500E+6	153.1182599E-3	83.5138623E-6	22.2206399E-3
2.9495000E+6	140.4576531E-3	83.4376363E-6	22.3040776E-3
2.9497500E+6	128.3148686E-3	82.8816351E-6	22.3869592E-3
2.9500000E+6	115.7681800E-3	83.4241847E-6	22.4703834E-3
2.9502500E+6	104.4487077E-3	83.3614103E-6	22.5537448E-3
2.9505000E+6	90.6302609E-3	82.5363763E-6	22.6362812E-3
2.9507500E+6	79.7188735E-3	82.7291832E-6	22.7190104E-3
2.9510000E+6	66.7493735E-3	81.8413748E-6	22.8008517E-3
2.9512500E+6	55.1205934E-3	82.2225047E-6	22.8830742E-3
2.9515000E+6	42.0400026E-3	58.9825519E-6	22.9420568E-3
2.9517500E+6	30.3103673E-3	16.5560742E-6	22.9586129E-3
2.9520000E+6	17.3433257E-3	8.8841546E-6	22.9674970E-3
2.9522500E+6	6.0398575E-3	5.5481475E-6	22.9730452E-3
