Acquisition Time (ms)	Shunt Voltage (V)	Sample Voltage (V)	Integrated Sample Voltage (V)		
milliseconds	Volts	Volts	Volts		
1.8375010E+6	7.2927739E-3	87.7780327E-6	87.7780327E-6
1.8377500E+6	18.7603529E-3	88.2219368E-6	175.9999695E-6
1.8380000E+6	31.8107507E-3	86.2310939E-6	262.2310633E-6
1.8382500E+6	43.4667291E-3	87.3744834E-6	349.6055467E-6
1.8385000E+6	56.6135525E-3	87.6524840E-6	437.2580307E-6
1.8387500E+6	68.0432550E-3	87.9349685E-6	525.1929992E-6
1.8390000E+6	80.8789624E-3	86.8364177E-6	612.0294169E-6
1.8392500E+6	92.3629990E-3	87.4282900E-6	699.4577069E-6
1.8395000E+6	105.0697053E-3	87.6210968E-6	787.0788038E-6
1.8397500E+6	117.0405767E-3	87.4462255E-6	874.5250292E-6
1.8400000E+6	131.9245179E-3	88.1232915E-6	962.6483207E-6
1.8402500E+6	141.7827534E-3	87.4955482E-6	1.0501439E-3
1.8405000E+6	154.5173033E-3	88.0650010E-6	1.1382089E-3
1.8407500E+6	166.4942239E-3	88.8451962E-6	1.2270541E-3
1.8410000E+6	179.3121695E-3	87.8318392E-6	1.3148859E-3
1.8412500E+6	191.2271176E-3	88.4281953E-6	1.4033141E-3
1.8415000E+6	204.0776618E-3	89.1007774E-6	1.4924149E-3
1.8417500E+6	215.9830246E-3	89.0693902E-6	1.5814843E-3
1.8420000E+6	228.0630856E-3	89.9796180E-6	1.6714639E-3
1.8422500E+6	240.4803960E-3	89.2352938E-6	1.7606992E-3
1.8425000E+6	252.9569844E-3	90.1993281E-6	1.8508985E-3
1.8427500E+6	265.1935008E-3	89.6029720E-6	1.9405015E-3
1.8430000E+6	277.6825456E-3	89.4998428E-6	2.0300013E-3
1.8432500E+6	289.9537808E-3	91.0781687E-6	2.1210795E-3
1.8435000E+6	302.3899965E-3	90.8136198E-6	2.2118931E-3
1.8437500E+6	314.6980707E-3	91.3965242E-6	2.3032896E-3
1.8440000E+6	327.1147626E-3	91.4099759E-6	2.3946996E-3
1.8442500E+6	339.4442600E-3	91.2889111E-6	2.4859885E-3
1.8445000E+6	351.2714835E-3	91.8135251E-6	2.5778020E-3
1.8447500E+6	363.8411413E-3	91.8942350E-6	2.6696963E-3
1.8450000E+6	375.8492911E-3	92.2394938E-6	2.7619358E-3
1.8452500E+6	388.5723123E-3	92.2529454E-6	2.8541887E-3
1.8455000E+6	400.5362465E-3	92.7685917E-6	2.9469573E-3
1.8457500E+6	413.3195617E-3	92.3246875E-6	3.0392820E-3
1.8460000E+6	425.3306269E-3	92.6161397E-6	3.1318981E-3
1.8462500E+6	438.0926072E-3	93.3604639E-6	3.2252586E-3
1.8465000E+6	450.1478881E-3	93.1766248E-6	3.3184352E-3
1.8467500E+6	462.7974520E-3	93.8492069E-6	3.4122844E-3
1.8470000E+6	474.8423967E-3	94.1092720E-6	3.5063937E-3
1.8472510E+6	487.5693050E-3	94.6428538E-6	3.6010366E-3
1.8475000E+6	499.5811211E-3	94.1585947E-6	3.6951952E-3
1.8477500E+6	511.9128270E-3	95.4365006E-6	3.7906317E-3
1.8480000E+6	523.5639388E-3	94.4904018E-6	3.8851221E-3
1.8482500E+6	536.6807929E-3	96.1494376E-6	3.9812715E-3
1.8485000E+6	548.2767345E-3	95.5485976E-6	4.0768201E-3
1.8487500E+6	561.4206215E-3	95.5979203E-6	4.1724180E-3
1.8490000E+6	573.0516794E-3	97.0282782E-6	4.2694463E-3
1.8492500E+6	586.1117731E-3	96.8803101E-6	4.3663266E-3
1.8495000E+6	597.8002981E-3	96.2032442E-6	4.4625298E-3
1.8497500E+6	610.8912677E-3	96.8623746E-6	4.5593922E-3
1.8500000E+6	622.0763262E-3	96.7726970E-6	4.6561649E-3
1.8502500E+6	635.1739657E-3	97.4946018E-6	4.7536595E-3
1.8505000E+6	646.7952617E-3	97.5125373E-6	4.8511721E-3
1.8507500E+6	659.9889300E-3	98.6021203E-6	4.9497742E-3
1.8510000E+6	671.3209911E-3	98.4676038E-6	5.0482418E-3
1.8512500E+6	684.1365957E-3	99.0594761E-6	5.1473013E-3
1.8515000E+6	696.0522505E-3	98.9787662E-6	5.2462800E-3
1.8517500E+6	708.9176363E-3	99.3598961E-6	5.3456399E-3
1.8520000E+6	720.8219832E-3	100.1266396E-6	5.4457666E-3
1.8522500E+6	733.6918745E-3	100.1894140E-6	5.5459560E-3
1.8525000E+6	745.3159975E-3	100.3553176E-6	5.6463113E-3
1.8527500E+6	757.8398936E-3	100.7095441E-6	5.7470208E-3
1.8530000E+6	769.9803370E-3	101.1399966E-6	5.8481608E-3
1.8532500E+6	782.5345789E-3	101.2207065E-6	5.9493815E-3
1.8535000E+6	794.6758616E-3	101.5166426E-6	6.0508982E-3
1.8537500E+6	807.2148644E-3	101.3507390E-6	6.1522489E-3
1.8540000E+6	819.4792088E-3	102.5344835E-6	6.2547834E-3
1.8542500E+6	832.0037233E-3	102.9380327E-6	6.3577214E-3
1.8545000E+6	844.2189491E-3	103.6958085E-6	6.4614172E-3
1.8547500E+6	856.7013682E-3	103.6509697E-6	6.5650682E-3
1.8550000E+6	868.9276368E-3	103.4043563E-6	6.6684726E-3
1.8552500E+6	881.4533881E-3	104.4401327E-6	6.7729127E-3
1.8555000E+6	893.6531097E-3	103.6420020E-6	6.8765547E-3
1.8557500E+6	906.1655654E-3	105.0544244E-6	6.9816091E-3
1.8560000E+6	918.4272154E-3	104.5253264E-6	7.0861345E-3
1.8562500E+6	931.0217858E-3	104.8212626E-6	7.1909557E-3
1.8565000E+6	943.2086093E-3	106.2605882E-6	7.2972163E-3
1.8567500E+6	955.7950522E-3	106.2022978E-6	7.4034186E-3
1.8570000E+6	967.9328454E-3	106.8838476E-6	7.5103025E-3
1.8572500E+6	980.5223361E-3	106.0274264E-6	7.6163299E-3
1.8575000E+6	992.6527085E-3	106.8524604E-6	7.7231823E-3
1.8577500E+6	1.0052373E+0	106.6148148E-6	7.8297972E-3
1.8580000E+6	1.0174234E+0	106.8031378E-6	7.9366003E-3
1.8582500E+6	1.0300247E+0	108.5383995E-6	8.0451387E-3
1.8585000E+6	1.0419821E+0	108.6908515E-6	8.1538295E-3
1.8587500E+6	1.0540725E+0	107.7088816E-6	8.2615384E-3
1.8590000E+6	1.0666719E+0	109.2692721E-6	8.3708077E-3
1.8592500E+6	1.0788814E+0	109.7266279E-6	8.4805343E-3
1.8595000E+6	1.0913891E+0	108.5249479E-6	8.5890593E-3
1.8597500E+6	1.1037162E+0	110.0898222E-6	8.6991491E-3
1.8600000E+6	1.1161529E+0	111.0404049E-6	8.8101895E-3
1.8602500E+6	1.1283816E+0	111.3901475E-6	8.9215796E-3
1.8605000E+6	1.1409356E+0	110.7982753E-6	9.0323779E-3
1.8607500E+6	1.1531860E+0	111.6636643E-6	9.1440416E-3
1.8610000E+6	1.1656807E+0	112.6770213E-6	9.2567186E-3
1.8612500E+6	1.1778494E+0	111.8609550E-6	9.3685796E-3
1.8615000E+6	1.1904557E+0	112.4931822E-6	9.4810727E-3
1.8617500E+6	1.2053861E+0	112.1658589E-6	9.5932386E-3
1.8620000E+6	1.2148580E+0	113.2375063E-6	9.7064761E-3
1.8622500E+6	1.2264825E+0	113.4437648E-6	9.8199199E-3
1.8625000E+6	1.2395726E+0	113.8742174E-6	9.9337941E-3
1.8627500E+6	1.2513097E+0	114.5647350E-6	10.0483588E-3
1.8630000E+6	1.2643941E+0	114.9817359E-6	10.1633406E-3
1.8632500E+6	1.2760742E+0	114.6678642E-6	10.2780084E-3
1.8635000E+6	1.2891563E+0	115.4121884E-6	10.3934206E-3
1.8637500E+6	1.3008320E+0	116.4838358E-6	10.5099045E-3
1.8640000E+6	1.3138816E+0	116.2865451E-6	10.6261910E-3
1.8642500E+6	1.3256668E+0	116.5017714E-6	10.7426928E-3
1.8645000E+6	1.3386968E+0	116.4345131E-6	10.8591273E-3
1.8647500E+6	1.3504015E+0	118.7885504E-6	10.9779158E-3
1.8650000E+6	1.3634541E+0	117.9500648E-6	11.0958659E-3
1.8652500E+6	1.3752100E+0	118.9544540E-6	11.2148204E-3
1.8655000E+6	1.3882774E+0	118.8378731E-6	11.3336582E-3
1.8657500E+6	1.4000284E+0	119.8960689E-6	11.4535543E-3
1.8660000E+6	1.4125634E+0	119.1920997E-6	11.5727464E-3
1.8662500E+6	1.4241790E+0	120.3399731E-6	11.6930864E-3
1.8665000E+6	1.4373372E+0	120.2144244E-6	11.8133008E-3
1.8667500E+6	1.4489586E+0	121.3622979E-6	11.9346631E-3
1.8670000E+6	1.4621485E+0	122.2680417E-6	12.0569311E-3
1.8672500E+6	1.4736963E+0	121.7748149E-6	12.1787059E-3
1.8677500E+6	1.4764151E+0	121.7748149E-6	12.3004808E-3
1.8680000E+6	1.4634689E+0	121.9586540E-6	12.4224394E-3
1.8682500E+6	1.4517353E+0	120.6000382E-6	12.5430395E-3
1.8685000E+6	1.4386737E+0	120.1337146E-6	12.6631732E-3
1.8687500E+6	1.4269588E+0	120.7076513E-6	12.7838808E-3
1.8690000E+6	1.4139948E+0	119.8871012E-6	12.9037679E-3
1.8692500E+6	1.4021738E+0	119.1113898E-6	13.0228793E-3
1.8695000E+6	1.3892094E+0	118.3491301E-6	13.1412284E-3
1.8697500E+6	1.3774170E+0	117.8559033E-6	13.2590843E-3
1.8700000E+6	1.3644097E+0	117.7931290E-6	13.3768775E-3
1.8702500E+6	1.3526503E+0	117.6810319E-6	13.4945585E-3
1.8705000E+6	1.3395829E+0	116.4031260E-6	13.6109616E-3
1.8707500E+6	1.3280965E+0	116.5510940E-6	13.7275127E-3
1.8710000E+6	1.3149748E+0	116.6542233E-6	13.8441669E-3
1.8712500E+6	1.3033120E+0	115.6901890E-6	13.9598571E-3
1.8715000E+6	1.2906277E+0	115.7978021E-6	14.0756549E-3
1.8717500E+6	1.2785591E+0	114.8382517E-6	14.1904932E-3
1.8720000E+6	1.2658722E+0	114.9055099E-6	14.3053987E-3
1.8722500E+6	1.2537964E+0	113.8831851E-6	14.4192819E-3
1.8725000E+6	1.2411157E+0	114.3001860E-6	14.5335821E-3
1.8727500E+6	1.2290569E+0	113.1971514E-6	14.6467792E-3
1.8730000E+6	1.2163504E+0	113.0626350E-6	14.7598419E-3
1.8732500E+6	1.2045486E+0	112.2196654E-6	14.8720615E-3
1.8735000E+6	1.1923250E+0	112.1568911E-6	14.9842184E-3
1.8737500E+6	1.1798398E+0	112.8518926E-6	15.0970703E-3
1.8740000E+6	1.1675088E+0	112.2376010E-6	15.2093079E-3
1.8742510E+6	1.1550811E+0	111.2242440E-6	15.3205322E-3
1.8745000E+6	1.1427653E+0	111.3856637E-6	15.4319178E-3
1.8747500E+6	1.1303479E+0	111.2287278E-6	15.5431465E-3
1.8750000E+6	1.1180106E+0	110.4395649E-6	15.6535861E-3
1.8752500E+6	1.1055589E+0	109.6414341E-6	15.7632275E-3
1.8755000E+6	1.0933041E+0	109.1526912E-6	15.8723802E-3
1.8757500E+6	1.0808078E+0	110.0360156E-6	15.9824162E-3
1.8760010E+6	1.0684487E+0	109.1033685E-6	16.0915196E-3
1.8762510E+6	1.0560081E+0	108.3186894E-6	16.1998383E-3
1.8765000E+6	1.0436522E+0	108.6549804E-6	16.3084933E-3
1.8767500E+6	1.0312691E+0	108.6863676E-6	16.4171797E-3
1.8770000E+6	1.0189198E+0	107.7268172E-6	16.5249065E-3
1.8772500E+6	1.0064939E+0	107.0407834E-6	16.6319473E-3
1.8775000E+6	992.7117216E-3	106.9466219E-6	16.7388939E-3
1.8777500E+6	981.7513193E-3	106.8838476E-6	16.8457777E-3
1.8780000E+6	970.1730463E-3	106.2874915E-6	16.9520652E-3
1.8782500E+6	957.2942765E-3	105.4086509E-6	17.0574739E-3
1.8785000E+6	945.3779591E-3	105.5252318E-6	17.1629991E-3
1.8787500E+6	932.5337315E-3	104.9916500E-6	17.2679907E-3
1.8790000E+6	920.7063755E-3	105.1530697E-6	17.3731438E-3
1.8792500E+6	907.7730539E-3	104.9378435E-6	17.4780817E-3
1.8795000E+6	895.7778463E-3	104.5342942E-6	17.5826160E-3
1.8797500E+6	883.0201947E-3	104.6105202E-6	17.6872265E-3
1.8800000E+6	871.0879756E-3	104.2697453E-6	17.7914962E-3
1.8802500E+6	858.2781575E-3	103.3415820E-6	17.8948378E-3
1.8805000E+6	846.3697469E-3	102.8842262E-6	17.9977220E-3
1.8807500E+6	833.4798017E-3	102.5075802E-6	18.1002296E-3
1.8810000E+6	821.6700260E-3	102.3416766E-6	18.2025713E-3
1.8812500E+6	808.7595853E-3	102.0950632E-6	18.3046663E-3
1.8815000E+6	796.8202987E-3	101.9560629E-6	18.4066224E-3
1.8817500E+6	784.0577883E-3	101.6915140E-6	18.5083139E-3
1.8820000E+6	772.1805185E-3	100.8888993E-6	18.6092028E-3
1.8822500E+6	759.3356283E-3	101.1758677E-6	18.7103787E-3
1.8825000E+6	748.1316644E-3	100.4225758E-6	18.8108013E-3
1.8827500E+6	735.0073454E-3	100.1042202E-6	18.9109055E-3
1.8830000E+6	723.4123314E-3	100.1266396E-6	19.0110321E-3
1.8832500E+6	710.2077527E-3	99.6423805E-6	19.1106745E-3
1.8835000E+6	698.6533323E-3	98.4720877E-6	19.2091466E-3
1.8837500E+6	685.4918209E-3	98.9025403E-6	19.3080491E-3
1.8840000E+6	673.8209203E-3	98.8711531E-6	19.4069203E-3
1.8842500E+6	660.7535825E-3	99.1357020E-6	19.5060560E-3
1.8845000E+6	649.1202718E-3	98.0819901E-6	19.6041380E-3
1.8847500E+6	635.9846449E-3	97.6380859E-6	19.7017761E-3
1.8850000E+6	624.4006296E-3	97.2479883E-6	19.7990241E-3
1.8852500E+6	611.2203894E-3	97.0865686E-6	19.8961106E-3
1.8855000E+6	600.0192084E-3	96.7771809E-6	19.9928878E-3
1.8857500E+6	587.0073057E-3	96.9879233E-6	20.0898757E-3
1.8860000E+6	575.2951931E-3	95.6293075E-6	20.1855050E-3
1.8862500E+6	562.2203903E-3	96.6964710E-6	20.2822015E-3
1.8865010E+6	550.5477229E-3	96.2391152E-6	20.3784406E-3
1.8867500E+6	537.4881151E-3	96.0059534E-6	20.4744466E-3
1.8870000E+6	525.7951729E-3	93.8447230E-6	20.5682913E-3
1.8872500E+6	512.6575140E-3	95.4365006E-6	20.6637278E-3
1.8875000E+6	501.0699209E-3	94.1003042E-6	20.7578281E-3
1.8877500E+6	487.9553637E-3	94.7908218E-6	20.8526189E-3
1.8880000E+6	476.3453314E-3	95.0329514E-6	20.9476519E-3
1.8882500E+6	463.2488404E-3	94.5307567E-6	21.0421826E-3
1.8885000E+6	451.5615080E-3	94.2841433E-6	21.1364668E-3
1.8887500E+6	438.9789964E-3	93.9702717E-6	21.2304370E-3
1.8890000E+6	426.8937231E-3	93.1990442E-6	21.3236361E-3
1.8892500E+6	414.2462794E-3	93.3021735E-6	21.4169383E-3
1.8895000E+6	402.3647250E-3	92.5982042E-6	21.5095365E-3
1.8897500E+6	389.5534050E-3	92.4592039E-6	21.6019957E-3
1.8900000E+6	377.6077578E-3	92.3246875E-6	21.6943204E-3
1.8902500E+6	364.7953336E-3	91.4458469E-6	21.7857662E-3
1.8905000E+6	352.8627170E-3	91.0736848E-6	21.8768399E-3
1.8907500E+6	340.0750288E-3	91.4368792E-6	21.9682768E-3
1.8910000E+6	328.1074284E-3	91.4548147E-6	22.0597316E-3
1.8912500E+6	315.2945183E-3	90.6566840E-6	22.1503883E-3
1.8915000E+6	303.3973272E-3	90.4414577E-6	22.2408297E-3
1.8917500E+6	291.2115638E-3	90.4593932E-6	22.3312891E-3
1.8920000E+6	278.9258845E-3	89.6702302E-6	22.4209594E-3
1.8922500E+6	266.4415219E-3	89.8540693E-6	22.5108134E-3
1.8925000E+6	254.1789443E-3	89.4998428E-6	22.6003133E-3
1.8927500E+6	241.6653401E-3	89.4684556E-6	22.6897817E-3
1.8930000E+6	229.3765247E-3	89.1231968E-6	22.7789049E-3
1.8932500E+6	216.9439752E-3	90.1275861E-6	22.8690325E-3
1.8935000E+6	204.6574125E-3	89.2397777E-6	22.9582723E-3
1.8937500E+6	192.1592684E-3	89.2980682E-6	23.0475704E-3
1.8940000E+6	179.9886558E-3	88.4999374E-6	23.1360703E-3
1.8942500E+6	167.4172754E-3	87.9753234E-6	23.2240456E-3
1.8945000E+6	155.1721013E-3	88.1188076E-6	23.3121644E-3
1.8947500E+6	142.7691467E-3	88.0963882E-6	23.4002608E-3
1.8950000E+6	130.4379708E-3	87.3565479E-6	23.4876174E-3
1.8952500E+6	117.9597481E-3	88.2174529E-6	23.5758348E-3
1.8955000E+6	105.7324193E-3	87.1771927E-6	23.6630120E-3
1.8957500E+6	91.9148945E-3	88.1322592E-6	23.7511443E-3
1.8960000E+6	81.2739396E-3	87.8901297E-6	23.8390344E-3
1.8962500E+6	69.3496921E-3	86.8812565E-6	23.9259156E-3
1.8965000E+6	56.5612253E-3	86.8453855E-6	24.0127610E-3
1.8967500E+6	44.4473313E-3	87.6121291E-6	24.1003732E-3
1.8970000E+6	31.8264797E-3	86.6749980E-6	24.1870482E-3
1.8972500E+6	19.8815998E-3	87.0292246E-6	24.2740774E-3
1.8975000E+6	7.1001416E-3	87.3251607E-6	24.3614025E-3
