Acquisition Time (ms)	Shunt Voltage (V)	Sample Voltage (V)	Integrated Sample Voltage (V)		
milliseconds	Volts	Volts	Volts		
4.9047500E+6	5.8330562E-3	127.1359556E-9	127.1359556E-9
4.9050000E+6	17.6440406E-3	-289.8649341E-9	-162.7289784E-9
4.9052500E+6	29.6705871E-3	1.4050419E-6	1.2423129E-6
4.9055000E+6	42.2468843E-3	1.2346544E-6	2.4769674E-6
4.9057500E+6	54.3345276E-3	1.0508153E-6	3.5277827E-6
4.9060000E+6	66.8399170E-3	1.1673962E-6	4.6951790E-6
4.9062510E+6	79.1134119E-3	1.7458168E-6	6.4409958E-6
4.9065000E+6	91.5530961E-3	916.2989298E-9	7.3572947E-6
4.9067500E+6	103.6032741E-3	992.5248989E-9	8.3498196E-6
4.9070000E+6	116.1398399E-3	1.9655270E-6	10.3153466E-6
4.9072500E+6	131.0043376E-3	1.2839771E-6	11.5993237E-6
4.9075000E+6	140.7892042E-3	1.7547846E-6	13.3541083E-6
4.9077500E+6	152.3192420E-3	2.7771094E-6	16.1312177E-6
4.9080000E+6	165.0735807E-3	2.9026580E-6	19.0338757E-6
4.9082500E+6	176.7344102E-3	3.6111111E-6	22.6449868E-6
4.9085000E+6	189.7117707E-3	5.0235335E-6	27.6685203E-6
4.9087500E+6	201.4495469E-3	6.1355359E-6	33.8040562E-6
4.9090000E+6	214.3257989E-3	5.6781801E-6	39.4822362E-6
4.9092500E+6	226.0027510E-3	6.2835039E-6	45.7657402E-6
4.9095000E+6	239.0275959E-3	7.9828947E-6	53.7486348E-6
4.9097500E+6	250.6642636E-3	8.6868639E-6	62.4354987E-6
4.9100000E+6	263.6941882E-3	9.0321227E-6	71.4676214E-6
4.9102500E+6	275.4999443E-3	11.9287095E-6	83.3963309E-6
4.9105000E+6	288.2904595E-3	41.9527736E-6	125.3491045E-6
4.9107500E+6	300.0673275E-3	67.3987956E-6	192.7479001E-6
4.9110000E+6	312.9809486E-3	81.4109223E-6	274.1588224E-6
4.9112500E+6	324.6353290E-3	83.5362817E-6	357.6951041E-6
4.9115000E+6	337.6211705E-3	83.3658942E-6	441.0609983E-6
4.9117500E+6	349.3604927E-3	83.9577664E-6	525.0187647E-6
4.9120000E+6	362.3028694E-3	84.8141876E-6	609.8329524E-6
4.9122500E+6	373.3764391E-3	84.9128330E-6	694.7457853E-6
4.9125000E+6	386.8584588E-3	85.6840604E-6	780.4298458E-6
4.9127500E+6	398.0077825E-3	85.4464148E-6	865.8762606E-6
4.9130000E+6	411.1325874E-3	85.0563172E-6	950.9325777E-6
4.9132500E+6	422.6136832E-3	86.3207715E-6	1.0372533E-3
4.9135000E+6	435.7807160E-3	86.1772873E-6	1.1234306E-3
4.9137500E+6	447.3014778E-3	87.1323539E-6	1.2105630E-3
4.9140000E+6	460.4673622E-3	86.6974174E-6	1.2972604E-3
4.9142500E+6	471.4870868E-3	87.8408070E-6	1.3851012E-3
4.9145000E+6	483.9594789E-3	87.5852258E-6	1.4726864E-3
4.9147500E+6	496.0529681E-3	87.6749034E-6	1.5603613E-3
4.9150000E+6	508.6679900E-3	88.7151637E-6	1.6490765E-3
4.9152500E+6	520.6733570E-3	88.5313246E-6	1.7376078E-3
4.9155000E+6	533.2799863E-3	88.7420670E-6	1.8263499E-3
4.9157500E+6	545.3385800E-3	89.7643917E-6	1.9161143E-3
4.9160000E+6	557.9924728E-3	89.2173583E-6	2.0053316E-3
4.9162500E+6	569.9774326E-3	90.4593932E-6	2.0957910E-3
4.9165000E+6	582.5914385E-3	89.9258114E-6	2.1857169E-3
4.9167500E+6	594.6488396E-3	90.5311353E-6	2.2762480E-3
4.9170000E+6	607.2018005E-3	90.2396831E-6	2.3664877E-3
4.9172510E+6	619.3403888E-3	90.2890058E-6	2.4567767E-3
4.9175000E+6	631.9482990E-3	90.8360392E-6	2.5476127E-3
4.9177500E+6	643.7235327E-3	91.9973642E-6	2.6396101E-3
4.9180000E+6	655.8424204E-3	91.9883965E-6	2.7315985E-3
4.9182500E+6	668.3026654E-3	91.9659771E-6	2.8235645E-3
4.9185000E+6	680.5424505E-3	92.7596239E-6	2.9163241E-3
4.9187500E+6	692.9490713E-3	93.4904965E-6	3.0098146E-3
4.9190000E+6	705.2217200E-3	92.4188490E-6	3.1022334E-3
4.9192500E+6	717.6100097E-3	92.4950750E-6	3.1947285E-3
4.9195000E+6	729.8414906E-3	93.4680770E-6	3.2881966E-3
4.9197500E+6	742.2353016E-3	94.3514015E-6	3.3825480E-3
4.9200000E+6	754.5079062E-3	95.1719517E-6	3.4777199E-3
4.9202500E+6	766.8779972E-3	96.0463084E-6	3.5737662E-3
4.9205000E+6	779.0891150E-3	95.6248236E-6	3.6693911E-3
4.9207500E+6	791.4926880E-3	96.1135666E-6	3.7655046E-3
4.9210000E+6	803.0983915E-3	95.3333714E-6	3.8608380E-3
4.9212500E+6	815.7517542E-3	96.3781155E-6	3.9572161E-3
4.9215000E+6	827.5528281E-3	96.9027295E-6	4.0541188E-3
4.9217500E+6	840.4281525E-3	96.8354713E-6	4.1509543E-3
4.9220000E+6	852.1592588E-3	97.4946018E-6	4.2484489E-3
4.9222500E+6	865.0567132E-3	97.5663439E-6	4.3460153E-3
4.9225000E+6	876.9073033E-3	97.5708277E-6	4.4435861E-3
4.9227510E+6	889.7485274E-3	99.1177665E-6	4.5427039E-3
4.9230000E+6	901.5045906E-3	98.8263143E-6	4.6415302E-3
4.9232500E+6	914.3972744E-3	98.3017003E-6	4.7398319E-3
4.9235010E+6	925.7299539E-3	99.4764770E-6	4.8393083E-3
4.9237500E+6	938.7009538E-3	99.4047349E-6	4.9387131E-3
4.9240000E+6	950.1892936E-3	100.1400913E-6	5.0388532E-3
4.9242500E+6	963.2705897E-3	100.2656399E-6	5.1391188E-3
4.9245000E+6	974.8814612E-3	101.4673199E-6	5.2405861E-3
4.9247500E+6	987.9085588E-3	100.4718984E-6	5.3410580E-3
4.9250000E+6	999.4872294E-3	102.0681599E-6	5.4431262E-3
4.9252500E+6	1.0126083E+0	101.4045456E-6	5.5445307E-3
4.9255000E+6	1.0242207E+0	102.2430313E-6	5.6467738E-3
4.9257510E+6	1.0373461E+0	102.0143533E-6	5.7487881E-3
4.9260000E+6	1.0486934E+0	102.8214518E-6	5.8516096E-3
4.9262500E+6	1.0614563E+0	102.5165480E-6	5.9541261E-3
4.9265000E+6	1.0729068E+0	103.3819369E-6	6.0575081E-3
4.9267500E+6	1.0855869E+0	105.0499405E-6	6.1625580E-3
4.9270000E+6	1.0975324E+0	104.4580682E-6	6.2670161E-3
4.9272500E+6	1.1102644E+0	104.6867461E-6	6.3717028E-3
4.9275000E+6	1.1222277E+0	104.3997778E-6	6.4761026E-3
4.9277500E+6	1.1349331E+0	104.9019724E-6	6.5810046E-3
4.9280000E+6	1.1468746E+0	105.9198133E-6	6.6869244E-3
4.9282500E+6	1.1596445E+0	106.3323303E-6	6.7932567E-3
4.9285000E+6	1.1715454E+0	106.2964593E-6	6.8995532E-3
4.9287500E+6	1.1842189E+0	106.1843622E-6	7.0057375E-3
4.9290000E+6	1.1962265E+0	107.3277518E-6	7.1130653E-3
4.9292500E+6	1.2107992E+0	108.1034631E-6	7.2211687E-3
4.9295000E+6	1.2205687E+0	108.6191094E-6	7.3297879E-3
4.9297500E+6	1.2329233E+0	108.3949154E-6	7.4381828E-3
4.9300010E+6	1.2452249E+0	108.4935607E-6	7.5466763E-3
4.9302500E+6	1.2575683E+0	109.7938861E-6	7.6564702E-3
4.9305000E+6	1.2698512E+0	109.6145309E-6	7.7660847E-3
4.9307500E+6	1.2822540E+0	109.8790798E-6	7.8759638E-3
4.9310000E+6	1.2945756E+0	109.8118216E-6	7.9857756E-3
4.9312500E+6	1.3068924E+0	110.4619843E-6	8.0962376E-3
4.9315000E+6	1.3192354E+0	110.8700174E-6	8.2071076E-3
4.9317500E+6	1.3315918E+0	110.8610496E-6	8.3179687E-3
4.9320000E+6	1.3439188E+0	110.7130816E-6	8.4286818E-3
4.9322500E+6	1.3554283E+0	111.7892129E-6	8.5404710E-3
4.9325000E+6	1.3682222E+0	111.8340517E-6	8.6523050E-3
4.9327500E+6	1.3801536E+0	112.7936022E-6	8.7650986E-3
4.9330000E+6	1.3929202E+0	113.0985060E-6	8.8781972E-3
4.9332500E+6	1.4048940E+0	113.8473141E-6	8.9920445E-3
4.9335000E+6	1.4176504E+0	113.8742174E-6	9.1059187E-3
4.9337500E+6	1.4295649E+0	113.6365717E-6	9.2195553E-3
4.9340000E+6	1.4422888E+0	113.5199908E-6	9.3330752E-3
4.9342500E+6	1.4541988E+0	114.6185415E-6	9.4476938E-3
4.9345000E+6	1.4669562E+0	114.6185415E-6	9.5623123E-3
4.9347500E+6	1.4780995E+0	115.1476394E-6	9.6774600E-3
4.9350000E+6	1.4713731E+0	115.1610911E-6	9.7926211E-3
4.9352510E+6	1.4594529E+0	115.1297039E-6	9.9077508E-3
4.9355000E+6	1.4468368E+0	114.6588965E-6	10.0224097E-3
4.9357500E+6	1.4349004E+0	113.2823451E-6	10.1356920E-3
4.9360000E+6	1.4221587E+0	113.6724427E-6	10.2493644E-3
4.9362500E+6	1.4102220E+0	113.3540872E-6	10.3627185E-3
4.9365000E+6	1.3974833E+0	112.7353117E-6	10.4754538E-3
4.9367500E+6	1.3855306E+0	112.1927622E-6	10.5876466E-3
4.9370000E+6	1.3727968E+0	112.1793105E-6	10.6998259E-3
4.9372500E+6	1.3607634E+0	111.8071484E-6	10.8116331E-3
4.9375000E+6	1.3481428E+0	110.9731467E-6	10.9226062E-3
4.9377500E+6	1.3362801E+0	110.5292425E-6	11.0331355E-3
4.9380000E+6	1.3238796E+0	110.4933714E-6	11.1436288E-3
4.9382500E+6	1.3122734E+0	110.8969207E-6	11.2545258E-3
4.9385000E+6	1.2991347E+0	109.3993046E-6	11.3639251E-3
4.9387500E+6	1.2876145E+0	109.6862729E-6	11.4736113E-3
4.9390000E+6	1.2744780E+0	108.9554004E-6	11.5825667E-3
4.9392500E+6	1.2629774E+0	110.0270479E-6	11.6925938E-3
4.9395000E+6	1.2498383E+0	108.3411088E-6	11.8009349E-3
4.9397500E+6	1.2386491E+0	107.7492366E-6	11.9086841E-3
4.9400000E+6	1.2256231E+0	108.9105616E-6	12.0175947E-3
4.9402500E+6	1.2140303E+0	107.5878169E-6	12.1251825E-3
4.9405000E+6	1.2009313E+0	107.9554951E-6	12.2331380E-3
4.9407500E+6	1.1893785E+0	107.6147201E-6	12.3407527E-3
4.9410000E+6	1.1762523E+0	106.3906208E-6	12.4471433E-3
4.9412500E+6	1.1647620E+0	106.1126202E-6	12.5532560E-3
4.9415000E+6	1.1516197E+0	106.3726852E-6	12.6596286E-3
4.9417500E+6	1.1400340E+0	105.5072963E-6	12.7651359E-3
4.9420000E+6	1.1269475E+0	104.8885208E-6	12.8700245E-3
4.9422500E+6	1.1153631E+0	104.8616175E-6	12.9748861E-3
4.9425000E+6	1.1022547E+0	104.8391981E-6	13.0797253E-3
4.9427500E+6	1.0909791E+0	104.0859062E-6	13.1838112E-3
4.9430000E+6	1.0781433E+0	102.3192572E-6	13.2861304E-3
4.9432500E+6	1.0662939E+0	102.7945486E-6	13.3889250E-3
4.9435000E+6	1.0534568E+0	103.5612921E-6	13.4924863E-3
4.9437510E+6	1.0416306E+0	102.3102895E-6	13.5947966E-3
4.9440000E+6	1.0288100E+0	101.4269650E-6	13.6962235E-3
4.9442500E+6	1.0169361E+0	101.6063202E-6	13.7978299E-3
4.9445000E+6	1.0041551E+0	102.5927739E-6	13.9004226E-3
4.9447500E+6	991.2467744E-3	101.2969325E-6	14.0017196E-3
4.9450000E+6	979.4439778E-3	100.6781569E-6	14.1023977E-3
4.9452500E+6	967.6200671E-3	101.0637707E-6	14.2034615E-3
4.9455000E+6	954.8019890E-3	99.8620907E-6	14.3033236E-3
4.9457500E+6	943.2744690E-3	99.3688638E-6	14.4026924E-3
4.9460000E+6	930.7211105E-3	99.0325728E-6	14.5017250E-3
4.9462510E+6	918.5297815E-3	99.1670892E-6	14.6008921E-3
4.9465000E+6	906.0887070E-3	97.7187958E-6	14.6986109E-3
4.9467500E+6	893.8783842E-3	98.5303782E-6	14.7971413E-3
4.9470000E+6	881.4549341E-3	98.9159919E-6	14.8960573E-3
4.9472500E+6	869.2501328E-3	97.9564415E-6	14.9940137E-3
4.9475000E+6	856.7913013E-3	97.2210851E-6	15.0912348E-3
4.9477500E+6	844.6073048E-3	96.7682131E-6	15.1880030E-3
4.9480000E+6	832.0797866E-3	96.4991803E-6	15.2845022E-3
4.9482500E+6	819.9409333E-3	96.4319221E-6	15.3809341E-3
4.9485000E+6	807.4954416E-3	96.2032442E-6	15.4771374E-3
4.9487500E+6	795.2984587E-3	95.3019842E-6	15.5724393E-3
4.9490000E+6	782.7871514E-3	95.3423391E-6	15.6677817E-3
4.9492500E+6	770.6629189E-3	95.1988549E-6	15.7629805E-3
4.9495000E+6	758.7719560E-3	94.7594346E-6	15.8577400E-3
4.9497500E+6	746.3996123E-3	95.2930164E-6	15.9530330E-3
4.9500000E+6	734.1604455E-3	93.6698517E-6	16.0467028E-3
4.9502500E+6	721.7293537E-3	93.2663024E-6	16.1399691E-3
4.9505000E+6	709.5545007E-3	93.0376245E-6	16.2330068E-3
4.9507500E+6	697.0266733E-3	93.4232382E-6	16.3264300E-3
4.9510000E+6	685.0048745E-3	92.4816233E-6	16.4189116E-3
4.9512500E+6	672.3682086E-3	92.3067520E-6	16.5112184E-3
4.9515000E+6	660.2636766E-3	92.5668171E-6	16.6037852E-3
4.9517500E+6	647.7646932E-3	92.6340753E-6	16.6964193E-3
4.9520000E+6	635.6693488E-3	92.1318807E-6	16.7885511E-3
4.9522500E+6	623.0939930E-3	91.2754595E-6	16.8798266E-3
4.9525000E+6	611.0077037E-3	91.1185236E-6	16.9709451E-3
4.9527500E+6	598.4155185E-3	90.9750395E-6	17.0619202E-3
4.9530000E+6	586.2861180E-3	90.3876511E-6	17.1523078E-3
4.9532500E+6	573.7328037E-3	89.6074559E-6	17.2419153E-3
4.9535000E+6	561.5697886E-3	89.8316499E-6	17.3317469E-3
4.9537500E+6	549.0990308E-3	89.6657464E-6	17.4214127E-3
4.9540000E+6	537.1006428E-3	89.2487455E-6	17.5106614E-3
4.9542500E+6	524.8529952E-3	89.0559386E-6	17.5997174E-3
4.9545000E+6	513.1507328E-3	88.3205822E-6	17.6880379E-3
4.9547500E+6	500.1991684E-3	87.2937736E-6	17.7753317E-3
4.9550000E+6	488.4944325E-3	87.8677103E-6	17.8631994E-3
4.9552500E+6	475.5191038E-3	88.1770980E-6	17.9513765E-3
4.9555000E+6	463.8664902E-3	86.6301592E-6	18.0380067E-3
4.9557500E+6	450.8628919E-3	87.0516440E-6	18.1250583E-3
4.9560000E+6	439.2442461E-3	86.4059652E-6	18.2114643E-3
4.9562500E+6	426.2460367E-3	86.1234807E-6	18.2975878E-3
4.9565000E+6	414.5295953E-3	86.2400616E-6	18.3838278E-3
4.9567500E+6	401.6409752E-3	85.0294139E-6	18.4688572E-3
4.9570000E+6	389.9176873E-3	85.4688342E-6	18.5543261E-3
4.9572500E+6	376.9618382E-3	84.8410909E-6	18.6391672E-3
4.9575010E+6	365.2132842E-3	85.2311885E-6	18.7243984E-3
4.9577500E+6	352.3334101E-3	84.3119930E-6	18.8087104E-3
4.9580000E+6	340.6043798E-3	83.7873790E-6	18.8924977E-3
4.9582500E+6	327.6654485E-3	83.7066691E-6	18.9762044E-3
4.9585000E+6	316.0271465E-3	82.7740220E-6	19.0589784E-3
4.9587500E+6	303.0205002E-3	80.9984053E-6	19.1399768E-3
4.9590000E+6	291.3647946E-3	53.1714427E-6	19.1931483E-3
4.9592500E+6	278.7622291E-3	11.0767722E-6	19.2042250E-3
4.9595000E+6	267.2893935E-3	9.4401558E-6	19.2136652E-3
4.9597500E+6	254.1558867E-3	7.8304427E-6	19.2214956E-3
4.9600000E+6	242.6018639E-3	7.2206350E-6	19.2287163E-3
4.9602500E+6	229.5159740E-3	6.8664084E-6	19.2355827E-3
4.9605000E+6	218.0006012E-3	5.3239535E-6	19.2409066E-3
4.9607500E+6	204.8700982E-3	4.4720162E-6	19.2453787E-3
4.9610000E+6	193.4019888E-3	4.1133058E-6	19.2494920E-3
4.9612500E+6	180.2800109E-3	3.3689816E-6	19.2528609E-3
4.9615000E+6	168.8210450E-3	2.2480114E-6	19.2551090E-3
4.9617500E+6	155.6399657E-3	2.2749147E-6	19.2573839E-3
4.9620000E+6	144.3512809E-3	1.6202682E-6	19.2590041E-3
4.9622500E+6	131.4108477E-3	875.9440050E-9	19.2598801E-3
4.9625000E+6	119.7024014E-3	1.2705255E-6	19.2611506E-3
4.9627500E+6	106.8034452E-3	1.6695909E-6	19.2628202E-3
4.9630000E+6	93.8314372E-3	799.7180359E-9	19.2636199E-3
4.9632500E+6	82.1672478E-3	1.1942995E-6	19.2648142E-3
4.9635000E+6	70.4156036E-3	1.2032673E-6	19.2660175E-3
4.9637500E+6	57.5118802E-3	1.4453968E-6	19.2674629E-3
4.9640000E+6	45.7899776E-3	167.4908805E-9	19.2676304E-3
4.9642500E+6	32.8698325E-3	992.5248989E-9	19.2686229E-3
4.9645000E+6	21.1553720E-3	1.1673962E-6	19.2697903E-3
4.9647500E+6	8.1917497E-3	808.6857969E-9	19.2705990E-3
