Acquisition Time (ms)	Shunt Voltage (V)	Sample Voltage (V)	Integrated Sample Voltage (V)		
milliseconds	Volts	Volts	Volts		
3.6052500E+6	12.0967173E-3	1.1180736E-6	1.1180736E-6
3.6055000E+6	23.3097315E-3	1.0418476E-6	2.1599211E-6
3.6057500E+6	36.3607952E-3	2.6291413E-6	4.7890624E-6
3.6060000E+6	47.8785113E-3	3.2210135E-6	8.0100760E-6
3.6062500E+6	60.9722566E-3	4.4765001E-6	12.4865760E-6
3.6065000E+6	72.3858368E-3	7.5434744E-6	20.0300504E-6
3.6067500E+6	85.1634375E-3	8.3460890E-6	28.3761394E-6
3.6070000E+6	97.0412759E-3	44.0063909E-6	72.3825302E-6
3.6072500E+6	109.2159851E-3	81.2853736E-6	153.6679039E-6
3.6075000E+6	124.0877019E-3	81.6351163E-6	235.3030202E-6
3.6077500E+6	133.9325534E-3	82.3390856E-6	317.6421058E-6
3.6080000E+6	146.1480001E-3	83.5990560E-6	401.2411617E-6
3.6082510E+6	158.6239701E-3	82.8367963E-6	484.0779580E-6
3.6085000E+6	170.8139298E-3	83.5676688E-6	567.6456269E-6
3.6087500E+6	183.2925943E-3	83.6438948E-6	651.2895217E-6
3.6090000E+6	195.4903282E-3	83.6887336E-6	734.9782553E-6
3.6092500E+6	207.9374100E-3	83.8232500E-6	818.8015053E-6
3.6095000E+6	220.1707019E-3	83.2762166E-6	902.0777219E-6
3.6097500E+6	232.6559038E-3	83.8501533E-6	985.9278752E-6
3.6100000E+6	244.8747075E-3	83.5273139E-6	1.0694552E-3
3.6102500E+6	257.3428592E-3	84.5630903E-6	1.1540183E-3
3.6105000E+6	269.2479128E-3	84.5989614E-6	1.2386172E-3
3.6107500E+6	281.2582271E-3	84.3523479E-6	1.3229696E-3
3.6110000E+6	294.1637206E-3	84.5406709E-6	1.4075103E-3
3.6112500E+6	306.6170306E-3	85.3163822E-6	1.4928266E-3
3.6115000E+6	318.6603852E-3	85.8185769E-6	1.5786452E-3
3.6117500E+6	330.6538259E-3	85.4957375E-6	1.6641410E-3
3.6120000E+6	343.3207493E-3	85.8768673E-6	1.7500178E-3
3.6122500E+6	355.4147685E-3	85.5405763E-6	1.8355584E-3
3.6125000E+6	367.9891084E-3	87.2803219E-6	1.9228387E-3
3.6127500E+6	379.9158944E-3	88.1143237E-6	2.0109530E-3
3.6130000E+6	392.7096783E-3	87.8497747E-6	2.0988028E-3
3.6132500E+6	404.0950986E-3	87.8318392E-6	2.1866347E-3
3.6135000E+6	417.3396082E-3	87.3430962E-6	2.2739778E-3
3.6137500E+6	429.3996154E-3	89.2621971E-6	2.3632400E-3
3.6140010E+6	441.6400631E-3	88.3878404E-6	2.4516278E-3
3.6142500E+6	453.3406470E-3	89.2666810E-6	2.5408945E-3
3.6145000E+6	466.3194651E-3	89.7599078E-6	2.6306544E-3
3.6147500E+6	477.9885989E-3	89.3698102E-6	2.7200242E-3
3.6150000E+6	491.0492226E-3	89.8137144E-6	2.8098379E-3
3.6152500E+6	502.6635396E-3	90.0917150E-6	2.8999296E-3
3.6155000E+6	515.7242959E-3	89.8630371E-6	2.9897927E-3
3.6157500E+6	527.4228920E-3	90.9346845E-6	3.0807273E-3
3.6160000E+6	540.4457050E-3	90.4011028E-6	3.1711284E-3
3.6162500E+6	552.0628047E-3	90.7777487E-6	3.2619062E-3
3.6165000E+6	565.1504614E-3	91.5848472E-6	3.3534910E-3
3.6167510E+6	576.7994530E-3	91.4772341E-6	3.4449683E-3
3.6170000E+6	589.8402437E-3	91.6341699E-6	3.5366024E-3
3.6172500E+6	601.4084898E-3	92.6968496E-6	3.6292993E-3
3.6175000E+6	614.4834251E-3	92.5757848E-6	3.7218751E-3
3.6177500E+6	626.2026493E-3	93.0824633E-6	3.8149575E-3
3.6180000E+6	639.2150378E-3	93.3290768E-6	3.9082866E-3
3.6182510E+6	650.9358081E-3	93.9030135E-6	4.0021896E-3
3.6185000E+6	663.4072284E-3	93.1721409E-6	4.0953618E-3
3.6187510E+6	674.9848389E-3	94.2393045E-6	4.1896011E-3
3.6190000E+6	688.1041224E-3	94.5576600E-6	4.2841587E-3
3.6192500E+6	699.6452030E-3	94.6876926E-6	4.3788464E-3
3.6195000E+6	712.8392246E-3	96.1315021E-6	4.4749779E-3
3.6197500E+6	724.3451006E-3	95.3513069E-6	4.5703292E-3
3.6200000E+6	737.5072304E-3	95.8535015E-6	4.6661827E-3
3.6202500E+6	749.0411994E-3	95.7145012E-6	4.7618972E-3
3.6205000E+6	762.1544314E-3	96.6067934E-6	4.8585040E-3
3.6207500E+6	773.7280664E-3	96.2346313E-6	4.9547387E-3
3.6210000E+6	786.8598504E-3	96.7861486E-6	5.0515248E-3
3.6212500E+6	798.1863018E-3	96.6202451E-6	5.1481451E-3
3.6215000E+6	811.0684286E-3	97.6470537E-6	5.2457921E-3
3.6217500E+6	822.7918491E-3	97.6022149E-6	5.3433943E-3
3.6220000E+6	835.7002138E-3	99.0729277E-6	5.4424673E-3
3.6222500E+6	847.4954129E-3	98.3913779E-6	5.5408586E-3
3.6225000E+6	860.3873900E-3	98.1133773E-6	5.6389720E-3
3.6227500E+6	872.1878014E-3	99.3598961E-6	5.7383319E-3
3.6230000E+6	885.0691331E-3	98.6290235E-6	5.8369609E-3
3.6232500E+6	896.8799689E-3	99.5975417E-6	5.9365585E-3
3.6235000E+6	909.7797643E-3	99.6692838E-6	6.0362278E-3
3.6237500E+6	921.5577808E-3	100.5212211E-6	6.1367490E-3
3.6240000E+6	934.4491394E-3	101.1713838E-6	6.2379204E-3
3.6242500E+6	946.2640832E-3	101.0278996E-6	6.3389483E-3
3.6245000E+6	959.1853460E-3	101.8619014E-6	6.4408102E-3
3.6247500E+6	970.9435736E-3	102.4717092E-6	6.5432819E-3
3.6250000E+6	983.8560904E-3	101.9157080E-6	6.6451976E-3
3.6252500E+6	995.4626331E-3	102.6824515E-6	6.7478800E-3
3.6255000E+6	1.0079707E+0	103.5074856E-6	6.8513875E-3
3.6257500E+6	1.0200863E+0	103.0949686E-6	6.9544825E-3
3.6260000E+6	1.0327268E+0	103.4133241E-6	7.0578958E-3
3.6262500E+6	1.0448008E+0	104.0410674E-6	7.1619369E-3
3.6265000E+6	1.0574263E+0	104.6284557E-6	7.2665653E-3
3.6267500E+6	1.0695392E+0	104.4939393E-6	7.3710593E-3
3.6270000E+6	1.0821786E+0	104.6777784E-6	7.4757371E-3
3.6272500E+6	1.0942101E+0	105.6866515E-6	7.5814237E-3
3.6275000E+6	1.1066972E+0	105.4938446E-6	7.6869175E-3
3.6277500E+6	1.1186096E+0	105.6552643E-6	7.7925728E-3
3.6280000E+6	1.1314065E+0	105.5745545E-6	7.8981474E-3
3.6282500E+6	1.1432808E+0	107.0676867E-6	8.0052151E-3
3.6285000E+6	1.1555281E+0	106.1709106E-6	8.1113860E-3
3.6287500E+6	1.1680178E+0	108.1079470E-6	8.2194939E-3
3.6290000E+6	1.1801271E+0	107.9061724E-6	8.3274001E-3
3.6292510E+6	1.1927442E+0	108.2424634E-6	8.4356425E-3
3.6295000E+6	1.2075556E+0	108.1796891E-6	8.5438222E-3
3.6297500E+6	1.2174142E+0	109.2916915E-6	8.6531139E-3
3.6300000E+6	1.2297122E+0	109.2334010E-6	8.7623473E-3
3.6302500E+6	1.2420708E+0	109.7624989E-6	8.8721098E-3
3.6305000E+6	1.2543582E+0	109.0809491E-6	8.9811908E-3
3.6307500E+6	1.2668291E+0	110.4261132E-6	9.0916169E-3
3.6310000E+6	1.2791177E+0	110.6547911E-6	9.2022717E-3
3.6312500E+6	1.2915494E+0	111.1255986E-6	9.3133973E-3
3.6315000E+6	1.3028928E+0	111.9999553E-6	9.4253972E-3
3.6317500E+6	1.3159098E+0	111.8564711E-6	9.5372537E-3
3.6320000E+6	1.3277784E+0	112.7397956E-6	9.6499935E-3
3.6322510E+6	1.3405683E+0	112.6097631E-6	9.7626033E-3
3.6325000E+6	1.3523749E+0	112.5469887E-6	9.8751503E-3
3.6327500E+6	1.3652891E+0	113.7845398E-6	9.9889348E-3
3.6330000E+6	1.3770980E+0	113.6410556E-6	10.1025758E-3
3.6332500E+6	1.3900246E+0	113.5289586E-6	10.2161048E-3
3.6335000E+6	1.4018446E+0	114.7440902E-6	10.3308489E-3
3.6337500E+6	1.4147378E+0	115.4615111E-6	10.4463104E-3
3.6340000E+6	1.4266176E+0	115.6901890E-6	10.5620006E-3
3.6342500E+6	1.4390942E+0	115.7036406E-6	10.6777042E-3
3.6345000E+6	1.4511040E+0	115.1117684E-6	10.7928160E-3
3.6347500E+6	1.4638485E+0	115.6005114E-6	10.9084165E-3
3.6350000E+6	1.4753054E+0	115.7843505E-6	11.0242009E-3
3.6352500E+6	1.4785940E+0	116.1923836E-6	11.1403933E-3
3.6355000E+6	1.4677059E+0	116.0219961E-6	11.2564152E-3
3.6357500E+6	1.4545387E+0	116.1296093E-6	11.3725449E-3
3.6360000E+6	1.4429731E+0	115.9457702E-6	11.4884906E-3
3.6362500E+6	1.4301957E+0	115.3763173E-6	11.6038669E-3
3.6365000E+6	1.4186625E+0	114.8786066E-6	11.7187456E-3
3.6367500E+6	1.4056223E+0	114.5512833E-6	11.8332968E-3
3.6370000E+6	1.3938883E+0	114.8696388E-6	11.9481665E-3
3.6372500E+6	1.3809603E+0	113.6769266E-6	12.0618434E-3
3.6375000E+6	1.3691764E+0	113.4975714E-6	12.1753410E-3
3.6377500E+6	1.3562132E+0	112.2689881E-6	12.2876100E-3
3.6380000E+6	1.3444618E+0	112.2151816E-6	12.3998251E-3
3.6382500E+6	1.3314898E+0	112.2017299E-6	12.5120269E-3
3.6385000E+6	1.3197700E+0	111.4843090E-6	12.6235112E-3
3.6387500E+6	1.3067137E+0	111.7712774E-6	12.7352825E-3
3.6390010E+6	1.2950478E+0	110.6054685E-6	12.8458879E-3
3.6392500E+6	1.2819889E+0	111.4215347E-6	12.9573095E-3
3.6395000E+6	1.2703613E+0	110.3947261E-6	13.0677042E-3
3.6397500E+6	1.2578820E+0	110.5023392E-6	13.1782065E-3
3.6400000E+6	1.2458811E+0	110.3857583E-6	13.2885923E-3
3.6402500E+6	1.2331928E+0	109.5652082E-6	13.3981575E-3
3.6405000E+6	1.2211950E+0	108.7446580E-6	13.5069022E-3
3.6407500E+6	1.2084689E+0	108.8164001E-6	13.6157186E-3
3.6410000E+6	1.1965009E+0	108.5114962E-6	13.7242300E-3
3.6412500E+6	1.1837044E+0	107.8523658E-6	13.8320824E-3
3.6415000E+6	1.1718100E+0	107.2963646E-6	13.9393788E-3
3.6417500E+6	1.1590290E+0	107.1170094E-6	14.0464958E-3
3.6420010E+6	1.1470593E+0	107.1528804E-6	14.1536487E-3
3.6422500E+6	1.1343483E+0	106.7089763E-6	14.2603576E-3
3.6425000E+6	1.1223430E+0	106.1260718E-6	14.3664837E-3
3.6427500E+6	1.1096703E+0	106.1484912E-6	14.4726322E-3
3.6430000E+6	1.0976827E+0	105.7808130E-6	14.5784130E-3
3.6432500E+6	1.0849031E+0	104.4760038E-6	14.6828890E-3
3.6435010E+6	1.0729726E+0	104.9826823E-6	14.7878717E-3
3.6437500E+6	1.0601899E+0	103.3326142E-6	14.8912043E-3
3.6440010E+6	1.0482340E+0	104.1172933E-6	14.9953216E-3
3.6442500E+6	1.0354865E+0	105.0454566E-6	15.1003671E-3
3.6445000E+6	1.0238513E+0	103.7944539E-6	15.2041615E-3
3.6447500E+6	1.0115069E+0	102.9066456E-6	15.3070682E-3
3.6450000E+6	998.5290616E-3	102.5972578E-6	15.4096654E-3
3.6452500E+6	986.7817885E-3	101.9829662E-6	15.5116484E-3
3.6455010E+6	974.4263624E-3	101.5973525E-6	15.6132457E-3
3.6457500E+6	962.0647524E-3	101.8888047E-6	15.7151346E-3
3.6460000E+6	949.7268182E-3	101.5749331E-6	15.8167095E-3
3.6462500E+6	937.3978951E-3	100.2701238E-6	15.9169796E-3
3.6465000E+6	925.0026263E-3	101.6780623E-6	16.0186577E-3
3.6467500E+6	912.5884080E-3	100.5077695E-6	16.1191654E-3
3.6470000E+6	900.6536712E-3	100.4584468E-6	16.2196239E-3
3.6472500E+6	888.6879701E-3	99.2836701E-6	16.3189076E-3
3.6475000E+6	875.9932629E-3	99.0639600E-6	16.4179715E-3
3.6477500E+6	864.0800817E-3	98.5483137E-6	16.5165198E-3
3.6480000E+6	851.2506073E-3	97.4946018E-6	16.6140144E-3
3.6482500E+6	839.3411365E-3	98.4227650E-6	16.7124372E-3
3.6485000E+6	826.5453650E-3	98.3689585E-6	16.8108062E-3
3.6487500E+6	814.5994969E-3	97.8757316E-6	16.9086819E-3
3.6490010E+6	801.8636218E-3	97.6111827E-6	17.0062931E-3
3.6492500E+6	789.9978808E-3	96.9834394E-6	17.1032765E-3
3.6495000E+6	777.2271987E-3	96.2346313E-6	17.1995111E-3
3.6497500E+6	765.2341555E-3	96.6336967E-6	17.2961448E-3
3.6500000E+6	752.5976221E-3	95.9969857E-6	17.3921418E-3
3.6502500E+6	740.5945078E-3	96.6875033E-6	17.4888293E-3
3.6505000E+6	727.8561591E-3	95.4634039E-6	17.5842927E-3
3.6507500E+6	716.7267567E-3	95.7952110E-6	17.6800879E-3
3.6510000E+6	703.5936476E-3	95.4409845E-6	17.7755289E-3
3.6512500E+6	692.0035808E-3	95.4723716E-6	17.8710013E-3
3.6515000E+6	678.9378331E-3	94.1541108E-6	17.9651554E-3
3.6517500E+6	667.3346032E-3	94.4321114E-6	18.0595875E-3
3.6520000E+6	654.1983137E-3	93.6294967E-6	18.1532170E-3
3.6522500E+6	642.6882856E-3	93.9388845E-6	18.2471559E-3
3.6525000E+6	629.5566341E-3	91.7417830E-6	18.3388977E-3
3.6527500E+6	618.3426433E-3	92.4771395E-6	18.4313748E-3
3.6530000E+6	605.3052538E-3	92.2081066E-6	18.5235829E-3
3.6532500E+6	593.7065294E-3	92.3022681E-6	18.6158852E-3
3.6535000E+6	580.6205512E-3	91.4458469E-6	18.7073310E-3
3.6537500E+6	569.0088845E-3	91.5131051E-6	18.7988441E-3
3.6540000E+6	555.8797066E-3	91.5893311E-6	18.8904335E-3
3.6542500E+6	544.3168495E-3	90.9346845E-6	18.9813682E-3
3.6545000E+6	531.2317105E-3	91.1319753E-6	19.0725001E-3
3.6547500E+6	519.6205739E-3	90.1544893E-6	19.1626546E-3
3.6550000E+6	506.4757593E-3	90.2486508E-6	19.2529033E-3
3.6552500E+6	494.9315867E-3	89.3563586E-6	19.3422596E-3
3.6555000E+6	481.7882739E-3	89.8630371E-6	19.4321227E-3
3.6557500E+6	470.2805428E-3	88.9931643E-6	19.5211158E-3
3.6560000E+6	457.5735559E-3	88.6927443E-6	19.6098086E-3
3.6562500E+6	445.7461116E-3	89.3473908E-6	19.6991560E-3
3.6565000E+6	433.0277726E-3	88.6748088E-6	19.7878308E-3
3.6567510E+6	421.0824346E-3	88.4685503E-6	19.8762993E-3
3.6570000E+6	408.2625896E-3	88.3250661E-6	19.9646244E-3
3.6572500E+6	396.4250741E-3	87.0830312E-6	20.0517074E-3
3.6575000E+6	383.6502399E-3	87.8318392E-6	20.1395393E-3
3.6577500E+6	371.7730584E-3	86.6705142E-6	20.2262098E-3
3.6580000E+6	358.9480012E-3	87.4910643E-6	20.3137008E-3
3.6582500E+6	347.1030649E-3	86.5942882E-6	20.4002951E-3
3.6585000E+6	334.2619293E-3	86.3521586E-6	20.4866473E-3
3.6587500E+6	322.3689786E-3	86.1100291E-6	20.5727573E-3
3.6590000E+6	309.5333644E-3	86.1324485E-6	20.6588898E-3
3.6592500E+6	297.6983667E-3	85.5674795E-6	20.7444573E-3
3.6595000E+6	284.8775499E-3	85.8140930E-6	20.8302713E-3
3.6597510E+6	273.0211733E-3	84.6168969E-6	20.9148882E-3
3.6600000E+6	260.1889161E-3	85.0832204E-6	20.9999715E-3
3.6602510E+6	248.3606325E-3	84.9083491E-6	21.0848798E-3
3.6605000E+6	235.9914249E-3	83.5766366E-6	21.1684564E-3
3.6607500E+6	223.8853911E-3	83.8994760E-6	21.2523559E-3
3.6610000E+6	211.4866770E-3	83.6438948E-6	21.3359998E-3
3.6612510E+6	199.2349214E-3	83.4690235E-6	21.4194688E-3
3.6615000E+6	186.8049780E-3	84.0564118E-6	21.5035253E-3
3.6617500E+6	174.5146607E-3	83.1237647E-6	21.5866490E-3
3.6620000E+6	162.0151031E-3	83.1417002E-6	21.6697907E-3
3.6622500E+6	149.8837590E-3	82.6798605E-6	21.7524706E-3
3.6625000E+6	137.4368096E-3	81.8906975E-6	21.8343613E-3
3.6627500E+6	125.2148256E-3	82.2852790E-6	21.9166466E-3
3.6630000E+6	112.6599211E-3	81.4109223E-6	21.9980575E-3
3.6632500E+6	100.5085232E-3	46.4949446E-6	22.0445524E-3
3.6635000E+6	86.7246630E-3	8.2877985E-6	22.0528402E-3
3.6637500E+6	75.8153540E-3	7.1578606E-6	22.0599981E-3
3.6640000E+6	63.2505530E-3	4.2836932E-6	22.0642818E-3
3.6642500E+6	51.1383798E-3	2.9833679E-6	22.0672651E-3
3.6645000E+6	38.6041874E-3	2.5349798E-6	22.0698001E-3
3.6647500E+6	26.4896989E-3	929.7505714E-9	22.0707299E-3
3.6650000E+6	13.9852169E-3	1.0732347E-6	22.0718031E-3
3.6652500E+6	2.1340450E-3	1.7189135E-6	22.0735220E-3
