Acquisition Time (ms)	Shunt Voltage (V)	Sample Voltage (V)	Integrated Sample Voltage (V)		
milliseconds	Volts	Volts	Volts		
7.0372500E+6	7.3368008E-3	391.6849072E-9	391.6849072E-9
7.0375000E+6	18.8238276E-3	-34.2837436E-9	357.4011636E-9
7.0377510E+6	31.8854981E-3	947.6860935E-9	1.3050873E-6
7.0380000E+6	43.5193737E-3	642.7822172E-9	1.9478695E-6
7.0382500E+6	56.4936697E-3	615.8789339E-9	2.5637484E-6
7.0385000E+6	68.0877066E-3	902.8472882E-9	3.4665957E-6
7.0387500E+6	81.0564601E-3	1.0911703E-6	4.5577660E-6
7.0390000E+6	92.7466097E-3	1.3736547E-6	5.9314207E-6
7.0392500E+6	105.6571941E-3	64.3616282E-9	5.9957823E-6
7.0395000E+6	116.7588850E-3	261.6523717E-9	6.2574347E-6
7.0397500E+6	131.5744147E-3	1.0373637E-6	7.2947984E-6
7.0400000E+6	141.3401551E-3	1.1718801E-6	8.4666785E-6
7.0402500E+6	154.4361161E-3	606.9111729E-9	9.0735897E-6
7.0405000E+6	165.7801477E-3	808.6857969E-9	9.8822755E-6
7.0407500E+6	178.5673942E-3	754.8792305E-9	10.6371547E-6
7.0410000E+6	190.3256218E-3	1.2122350E-6	11.8493898E-6
7.0412500E+6	203.1631354E-3	140.5875973E-9	11.9899774E-6
7.0415000E+6	214.9879736E-3	1.7458168E-6	13.7357942E-6
7.0417500E+6	227.7590092E-3	1.2077512E-6	14.9435454E-6
7.0420000E+6	239.3286246E-3	1.1360091E-6	16.0795544E-6
7.0422500E+6	252.3825343E-3	1.1584285E-6	17.2379829E-6
7.0425000E+6	264.1953137E-3	907.3311687E-9	18.1453141E-6
7.0427500E+6	276.4718053E-3	1.5843971E-6	19.7297112E-6
7.0430000E+6	288.5554000E-3	1.5081712E-6	21.2378824E-6
7.0432500E+6	301.0389676E-3	970.1054962E-9	22.2079879E-6
7.0435000E+6	313.1924416E-3	1.2346544E-6	23.4426423E-6
7.0437500E+6	325.6839158E-3	1.5440422E-6	24.9866845E-6
7.0440000E+6	337.7589855E-3	1.3512353E-6	26.3379199E-6
7.0442500E+6	350.2997551E-3	1.1091058E-6	27.4470257E-6
7.0445000E+6	362.4191729E-3	1.8893010E-6	29.3363267E-6
7.0447500E+6	374.8837909E-3	2.2973341E-6	31.6336608E-6
7.0450000E+6	387.0764892E-3	2.7053673E-6	34.3390281E-6
7.0452500E+6	399.5335980E-3	2.9071419E-6	37.2461700E-6
7.0455000E+6	411.2643068E-3	3.6559499E-6	40.9021199E-6
7.0457500E+6	423.3645984E-3	4.1850478E-6	45.0871677E-6
7.0460000E+6	435.9212697E-3	3.7770147E-6	48.8641824E-6
7.0462500E+6	448.0217821E-3	5.4629538E-6	54.3271362E-6
7.0465010E+6	460.5571186E-3	4.7993395E-6	59.1264757E-6
7.0467500E+6	472.6195553E-3	5.5302120E-6	64.6566877E-6
7.0470000E+6	485.0874861E-3	6.8305374E-6	71.4872251E-6
7.0472500E+6	497.2581428E-3	7.1175057E-6	78.6047308E-6
7.0475010E+6	509.7414453E-3	6.9471182E-6	85.5518490E-6
7.0477500E+6	521.9421387E-3	8.1263788E-6	93.6782279E-6
7.0480000E+6	533.9768356E-3	7.7273135E-6	101.4055413E-6
7.0482500E+6	545.6400945E-3	8.5209603E-6	109.9265016E-6
7.0485000E+6	558.6034527E-3	9.2249296E-6	119.1514312E-6
7.0487500E+6	570.1740841E-3	9.3863493E-6	128.5377805E-6
7.0490000E+6	583.3292348E-3	10.4759322E-6	139.0137127E-6
7.0492500E+6	594.8740258E-3	10.8974170E-6	149.9111297E-6
7.0495000E+6	607.8570845E-3	11.6955477E-6	161.6066774E-6
7.0497500E+6	619.5682694E-3	13.1797122E-6	174.7863896E-6
7.0500000E+6	632.4432405E-3	16.6098808E-6	191.3962704E-6
7.0502500E+6	644.1795149E-3	40.0112533E-6	231.4075237E-6
7.0505000E+6	657.0891163E-3	55.3326731E-6	286.7401968E-6
7.0507500E+6	668.7665543E-3	65.3451783E-6	352.0853752E-6
7.0510000E+6	681.7299567E-3	73.9497451E-6	426.0351202E-6
7.0512500E+6	692.9352015E-3	84.8007360E-6	510.8358562E-6
7.0515000E+6	705.8995756E-3	88.2084852E-6	599.0443414E-6
7.0517500E+6	717.4275373E-3	89.1321646E-6	688.1765060E-6
7.0520000E+6	730.4940800E-3	90.0065213E-6	778.1830273E-6
7.0522500E+6	742.0306552E-3	90.6656517E-6	868.8486790E-6
7.0525000E+6	755.1432688E-3	90.1813926E-6	959.0300716E-6
7.0527500E+6	766.6245854E-3	90.4997481E-6	1.0495298E-3
7.0530000E+6	779.7367572E-3	92.1901711E-6	1.1417200E-3
7.0532500E+6	791.2500540E-3	92.0780741E-6	1.2337981E-3
7.0535000E+6	804.3125771E-3	93.1138505E-6	1.3269119E-3
7.0537500E+6	815.8432333E-3	93.7057227E-6	1.4206176E-3
7.0540000E+6	828.8585813E-3	94.3379499E-6	1.5149556E-3
7.0542500E+6	840.1389618E-3	94.8625639E-6	1.6098182E-3
7.0545000E+6	853.0224579E-3	94.9970803E-6	1.7048152E-3
7.0547500E+6	864.7375300E-3	95.0957257E-6	1.7999110E-3
7.0550000E+6	877.6457622E-3	95.9566307E-6	1.8958676E-3
7.0552500E+6	889.3619386E-3	96.4767609E-6	1.9923443E-3
7.0555000E+6	902.3360746E-3	96.6919872E-6	2.0890363E-3
7.0557500E+6	913.9676184E-3	96.8982457E-6	2.1859346E-3
7.0560000E+6	926.9192269E-3	97.0551815E-6	2.2829898E-3
7.0562500E+6	938.6404388E-3	97.3735370E-6	2.3803633E-3
7.0565010E+6	951.6003958E-3	97.8846994E-6	2.4782480E-3
7.0567500E+6	963.2505800E-3	97.5753116E-6	2.5758233E-3
7.0570000E+6	976.1210013E-3	99.1491537E-6	2.6749725E-3
7.0572500E+6	987.8606769E-3	99.1222504E-6	2.7740947E-3
7.0575000E+6	1.0008082E+0	99.5930579E-6	2.8736878E-3
7.0577500E+6	1.0122152E+0	99.8710585E-6	2.9735588E-3
7.0580000E+6	1.0248910E+0	100.0279943E-6	3.0735868E-3
7.0582510E+6	1.0368992E+0	100.5257050E-6	3.1741125E-3
7.0585000E+6	1.0495167E+0	101.0548029E-6	3.2751673E-3
7.0587500E+6	1.0614929E+0	100.8126734E-6	3.3759800E-3
7.0590000E+6	1.0740924E+0	100.4629307E-6	3.4764429E-3
7.0592500E+6	1.0861517E+0	102.4627414E-6	3.5789057E-3
7.0595000E+6	1.0987423E+0	102.1937086E-6	3.6810994E-3
7.0597500E+6	1.1105416E+0	102.4986124E-6	3.7835980E-3
7.0600000E+6	1.1227944E+0	103.0860008E-6	3.8866840E-3
7.0602500E+6	1.1351194E+0	103.6464859E-6	3.9903305E-3
7.0605000E+6	1.1474099E+0	103.9872608E-6	4.0943177E-3
7.0607500E+6	1.1597320E+0	104.9378435E-6	4.1992556E-3
7.0610000E+6	1.1721689E+0	105.2158441E-6	4.3044714E-3
7.0612500E+6	1.1843496E+0	105.2831023E-6	4.4097545E-3
7.0615000E+6	1.1966178E+0	104.9333596E-6	4.5146879E-3
7.0617500E+6	1.2115338E+0	105.6328449E-6	4.6203207E-3
7.0620000E+6	1.2212298E+0	105.5028124E-6	4.7258236E-3
7.0622500E+6	1.2335674E+0	105.7180387E-6	4.8315416E-3
7.0625000E+6	1.2452378E+0	106.2516205E-6	4.9377932E-3
7.0627500E+6	1.2581706E+0	106.4802984E-6	5.0442735E-3
7.0630000E+6	1.2697519E+0	107.1842676E-6	5.1514578E-3
7.0632500E+6	1.2825703E+0	107.8164948E-6	5.2592743E-3
7.0635000E+6	1.2942522E+0	108.2962700E-6	5.3675705E-3
7.0637500E+6	1.3071440E+0	106.7762345E-6	5.4743468E-3
7.0640000E+6	1.3189913E+0	108.5832383E-6	5.5829300E-3
7.0642500E+6	1.3318283E+0	109.0854330E-6	5.6920155E-3
7.0645000E+6	1.3436675E+0	109.3141109E-6	5.8013296E-3
7.0647500E+6	1.3564814E+0	109.9418541E-6	5.9112714E-3
7.0650000E+6	1.3682168E+0	110.2198547E-6	6.0214913E-3
7.0652500E+6	1.3811069E+0	110.2108870E-6	6.1317022E-3
7.0655000E+6	1.3928913E+0	110.1660482E-6	6.2418682E-3
7.0657500E+6	1.4053613E+0	110.7624043E-6	6.3526306E-3
7.0660000E+6	1.4169514E+0	110.6368556E-6	6.4632675E-3
7.0662500E+6	1.4303307E+0	113.0536672E-6	6.5763211E-3
7.0665000E+6	1.4415961E+0	112.5290532E-6	6.6888502E-3
7.0667500E+6	1.4545966E+0	112.9056992E-6	6.8017559E-3
7.0670000E+6	1.4662505E+0	113.0850544E-6	6.9148409E-3
7.0675000E+6	1.4685719E+0	113.4168615E-6	7.0282578E-3
7.0677500E+6	1.4556155E+0	111.9371810E-6	7.1401950E-3
7.0680000E+6	1.4440707E+0	112.9056992E-6	7.2531007E-3
7.0682500E+6	1.4309748E+0	111.5246640E-6	7.3646253E-3
7.0685010E+6	1.4194435E+0	113.1388610E-6	7.4777642E-3
7.0687500E+6	1.4064175E+0	111.4170508E-6	7.5891813E-3
7.0690000E+6	1.3947695E+0	110.3498873E-6	7.6995311E-3
7.0692500E+6	1.3818068E+0	110.0404995E-6	7.8095716E-3
7.0695000E+6	1.3701137E+0	110.1839837E-6	7.9197556E-3
7.0697500E+6	1.3570904E+0	110.0539511E-6	8.0298096E-3
7.0700000E+6	1.3454989E+0	108.5832383E-6	8.1383928E-3
7.0702510E+6	1.3322515E+0	110.1032738E-6	8.2484961E-3
7.0705000E+6	1.3210788E+0	109.0316264E-6	8.3575277E-3
7.0707500E+6	1.3083696E+0	108.4845930E-6	8.4660123E-3
7.0710000E+6	1.2964253E+0	107.9016885E-6	8.5739140E-3
7.0712500E+6	1.2837486E+0	108.2110762E-6	8.6821251E-3
7.0715000E+6	1.2718051E+0	107.7895915E-6	8.7899147E-3
7.0717510E+6	1.2590812E+0	108.3052377E-6	8.8982199E-3
7.0720000E+6	1.2472144E+0	106.2740399E-6	9.0044939E-3
7.0722500E+6	1.2343729E+0	105.9781037E-6	9.1104720E-3
7.0725000E+6	1.2225560E+0	105.8480712E-6	9.2163201E-3
7.0727500E+6	1.2098231E+0	104.7450366E-6	9.3210652E-3
7.0730000E+6	1.1979220E+0	105.0275211E-6	9.4260927E-3
7.0732500E+6	1.1851478E+0	104.4177133E-6	9.5305104E-3
7.0735000E+6	1.1732605E+0	104.0500351E-6	9.6345604E-3
7.0737500E+6	1.1605855E+0	104.4401327E-6	9.7390006E-3
7.0740000E+6	1.1486506E+0	103.8751638E-6	9.8428757E-3
7.0742500E+6	1.1359235E+0	104.3549390E-6	9.9472307E-3
7.0745000E+6	1.1240278E+0	102.9470005E-6	10.0501777E-3
7.0747500E+6	1.1112544E+0	103.3864208E-6	10.1535641E-3
7.0750000E+6	1.0993956E+0	102.2206119E-6	10.2557847E-3
7.0752510E+6	1.0873163E+0	101.2162226E-6	10.3570009E-3
7.0755000E+6	1.0750490E+0	101.6646107E-6	10.4586655E-3
7.0757500E+6	1.0626828E+0	101.6915140E-6	10.5603570E-3
7.0760000E+6	1.0504053E+0	100.7274796E-6	10.6610845E-3
7.0762500E+6	1.0380106E+0	100.8216411E-6	10.7619062E-3
7.0765000E+6	1.0257642E+0	99.1715731E-6	10.8610777E-3
7.0767500E+6	1.0133419E+0	99.9966071E-6	10.9610743E-3
7.0770000E+6	1.0011249E+0	99.5616707E-6	11.0606360E-3
7.0772500E+6	987.3387909E-3	99.9293489E-6	11.1605654E-3
7.0775000E+6	976.8769963E-3	99.4137026E-6	11.2599791E-3
7.0777500E+6	964.9146964E-3	97.8622800E-6	11.3578413E-3
7.0780000E+6	952.1989194E-3	97.8802155E-6	11.4557216E-3
7.0782500E+6	940.2244724E-3	97.8084734E-6	11.5535300E-3
7.0785000E+6	927.5819758E-3	97.8129573E-6	11.6513430E-3
7.0787500E+6	915.5885792E-3	96.6561161E-6	11.7479991E-3
7.0790000E+6	902.9823917E-3	96.7233743E-6	11.8447225E-3
7.0792500E+6	890.9999054E-3	95.7055334E-6	11.9404280E-3
7.0795000E+6	878.3197307E-3	95.6158558E-6	12.0360439E-3
7.0797500E+6	866.3102998E-3	94.9791448E-6	12.1310230E-3
7.0800000E+6	853.6831308E-3	94.8535961E-6	12.2258766E-3
7.0802500E+6	841.7206984E-3	94.2751755E-6	12.3201518E-3
7.0805000E+6	829.0428205E-3	93.8716263E-6	12.4140234E-3
7.0807500E+6	817.1242946E-3	93.1093666E-6	12.5071328E-3
7.0810000E+6	804.4580338E-3	93.4187544E-6	12.6005515E-3
7.0812500E+6	792.5581041E-3	92.5668171E-6	12.6931184E-3
7.0815000E+6	779.8701110E-3	92.7013335E-6	12.7858197E-3
7.0817500E+6	767.8688518E-3	91.5938150E-6	12.8774135E-3
7.0820000E+6	755.3036112E-3	91.0243622E-6	12.9684379E-3
7.0822500E+6	743.1784069E-3	90.9346845E-6	13.0593725E-3
7.0825000E+6	731.0093845E-3	90.1410377E-6	13.1495136E-3
7.0827500E+6	719.4546108E-3	89.4863911E-6	13.2390000E-3
7.0830000E+6	706.4753509E-3	88.7241314E-6	13.3277241E-3
7.0832500E+6	694.8627566E-3	89.2039067E-6	13.4169280E-3
7.0835000E+6	681.8124690E-3	88.2712595E-6	13.5051993E-3
7.0837500E+6	670.1784074E-3	81.2315671E-6	13.5864308E-3
7.0840000E+6	657.2153143E-3	61.1841372E-6	13.6476150E-3
7.0842500E+6	645.5730810E-3	42.6163879E-6	13.6902314E-3
7.0845000E+6	632.6006235E-3	19.6903067E-6	13.7099217E-3
7.0847500E+6	621.4511672E-3	12.0677098E-6	13.7219894E-3
7.0850000E+6	608.3624062E-3	11.4623859E-6	13.7334518E-3
7.0852500E+6	596.8755240E-3	10.7584167E-6	13.7442102E-3
7.0855000E+6	583.7624245E-3	9.7226403E-6	13.7539328E-3
7.0857500E+6	572.1886570E-3	10.0992863E-6	13.7640321E-3
7.0860000E+6	559.1765777E-3	9.3459943E-6	13.7733781E-3
7.0862500E+6	547.5618632E-3	8.7541221E-6	13.7821322E-3
7.0865000E+6	534.5456760E-3	7.7048941E-6	13.7898371E-3
7.0867500E+6	522.9816262E-3	7.3551514E-6	13.7971923E-3
7.0870000E+6	509.8537292E-3	7.3551514E-6	13.8045474E-3
7.0872500E+6	498.3423760E-3	6.1265681E-6	13.8106740E-3
7.0875000E+6	485.2790578E-3	5.6736962E-6	13.8163477E-3
7.0877500E+6	473.7676604E-3	5.4898571E-6	13.8218375E-3
7.0880000E+6	460.6326077E-3	4.7769201E-6	13.8266145E-3
7.0882500E+6	449.1573426E-3	3.3420783E-6	13.8299565E-3
7.0885000E+6	436.0108495E-3	3.5573046E-6	13.8335138E-3
7.0887500E+6	424.5926981E-3	3.9653377E-6	13.8374792E-3
7.0890000E+6	411.9508200E-3	4.2119511E-6	13.8416911E-3
7.0892500E+6	400.2226731E-3	3.2030780E-6	13.8448942E-3
7.0895000E+6	387.3462003E-3	2.7681416E-6	13.8476624E-3
7.0897500E+6	375.6109418E-3	2.0238174E-6	13.8496862E-3
7.0900000E+6	362.7228077E-3	1.0687509E-6	13.8507549E-3
7.0902500E+6	350.9498268E-3	822.1374386E-9	13.8515771E-3
7.0905000E+6	338.2098438E-3	1.3422676E-6	13.8529193E-3
7.0907500E+6	326.3170699E-3	423.0720709E-9	13.8533424E-3
7.0910000E+6	313.5416613E-3	1.5036873E-6	13.8548461E-3
7.0912500E+6	301.9703233E-3	1.2750094E-6	13.8561211E-3
7.0915000E+6	289.4262850E-3	1.2256867E-6	13.8573468E-3
7.0917500E+6	277.4242749E-3	1.8758494E-6	13.8592226E-3
7.0920000E+6	264.8867740E-3	1.6337198E-6	13.8608564E-3
7.0922500E+6	252.8011032E-3	988.0410183E-9	13.8618444E-3
7.0925000E+6	240.2318430E-3	1.8579138E-6	13.8637023E-3
7.0927510E+6	228.1685230E-3	611.3950534E-9	13.8643137E-3
7.0930000E+6	215.7217945E-3	884.9117660E-9	13.8651986E-3
7.0932500E+6	203.5609438E-3	387.2010267E-9	13.8655858E-3
7.0935000E+6	191.0865198E-3	391.6849072E-9	13.8659775E-3
7.0937500E+6	178.9661302E-3	678.6532614E-9	13.8666562E-3
7.0940000E+6	166.4084429E-3	961.1377351E-9	13.8676173E-3
7.0942500E+6	154.3267475E-3	1.5619777E-6	13.8691793E-3
7.0945000E+6	141.8401763E-3	1.0911703E-6	13.8702704E-3
7.0947500E+6	129.6950065E-3	-289.8649341E-9	13.8699806E-3
7.0950000E+6	117.3127684E-3	1.2122350E-6	13.8711928E-3
7.0952500E+6	105.0828777E-3	167.4908805E-9	13.8713603E-3
7.0955000E+6	91.8224335E-3	956.6538546E-9	13.8723170E-3
7.0957510E+6	80.8021992E-3	557.5884870E-9	13.8728745E-3
7.0960000E+6	68.6254293E-3	768.3308721E-9	13.8736429E-3
7.0962500E+6	56.2720915E-3	629.3305756E-9	13.8742722E-3
7.0965010E+6	44.0674081E-3	642.7822172E-9	13.8749150E-3
7.0967500E+6	31.6095365E-3	638.2983366E-9	13.8755533E-3
7.0970000E+6	20.4157244E-3	472.3947568E-9	13.8760257E-3
7.0972500E+6	7.3971690E-3	189.9102831E-9	13.8762156E-3
