Acquisition Time (ms)	Shunt Voltage (V)	Sample Voltage (V)	Integrated Sample Voltage (V)		
milliseconds	Volts	Volts	Volts		
2.0347500E+6	219.4143978E-3	87.6390324E-6	87.6390324E-6
2.0350000E+6	230.8694766E-3	87.8990974E-6	175.5381298E-6
2.0352500E+6	243.6800014E-3	88.0201622E-6	263.5582920E-6
2.0355000E+6	255.3110152E-3	89.1231968E-6	352.6814888E-6
2.0357500E+6	267.7395892E-3	89.3249714E-6	442.0064602E-6
2.0360000E+6	280.0560118E-3	89.2532293E-6	531.2596896E-6
2.0362500E+6	292.5439523E-3	89.4908750E-6	620.7505646E-6
2.0365000E+6	304.7781719E-3	90.6611678E-6	711.4117324E-6
2.0367500E+6	317.2441591E-3	89.5760687E-6	800.9878012E-6
2.0370000E+6	329.4377409E-3	90.6208129E-6	891.6086141E-6
2.0372500E+6	342.0102256E-3	90.2351992E-6	981.8438133E-6
2.0375000E+6	354.2047791E-3	90.5939096E-6	1.0724377E-3
2.0377500E+6	366.7166606E-3	90.4280060E-6	1.1628657E-3
2.0380000E+6	378.9899718E-3	90.3024574E-6	1.2531682E-3
2.0382500E+6	391.4082097E-3	91.2171690E-6	1.3443854E-3
2.0385000E+6	403.7378838E-3	91.1454269E-6	1.4355308E-3
2.0387500E+6	415.6083954E-3	91.8583639E-6	1.5273891E-3
2.0390000E+6	428.1733268E-3	92.3784941E-6	1.6197676E-3
2.0392500E+6	440.2718515E-3	91.8852672E-6	1.7116529E-3
2.0395000E+6	452.8239290E-3	92.1049774E-6	1.8037579E-3
2.0397500E+6	464.9440535E-3	92.8896565E-6	1.8966475E-3
2.0400000E+6	477.5860642E-3	92.3515908E-6	1.9889991E-3
2.0402500E+6	489.6689080E-3	92.7147851E-6	2.0817139E-3
2.0405000E+6	502.3689600E-3	93.9119812E-6	2.1756259E-3
2.0407500E+6	514.4717252E-3	94.2482723E-6	2.2698742E-3
2.0410000E+6	527.1344964E-3	94.5217890E-6	2.3643960E-3
2.0412500E+6	539.1269654E-3	93.9837233E-6	2.4583797E-3
2.0415000E+6	551.8265756E-3	94.7145958E-6	2.5530943E-3
2.0417500E+6	563.8758050E-3	94.9970803E-6	2.6480914E-3
2.0420000E+6	576.5441860E-3	95.0598546E-6	2.7431512E-3
2.0422500E+6	588.6671817E-3	95.3019842E-6	2.8384532E-3
2.0425000E+6	601.3416142E-3	95.7189851E-6	2.9341722E-3
2.0427500E+6	613.3963650E-3	96.4857286E-6	3.0306579E-3
2.0430000E+6	626.1223456E-3	96.6695678E-6	3.1273275E-3
2.0432500E+6	638.1986521E-3	96.6426645E-6	3.2239701E-3
2.0435000E+6	650.8289572E-3	97.8488283E-6	3.3218190E-3
2.0437500E+6	662.9321200E-3	97.2793755E-6	3.4190983E-3
2.0440010E+6	675.5667981E-3	97.8936671E-6	3.5169920E-3
2.0442500E+6	686.8826484E-3	98.2165065E-6	3.6152085E-3
2.0445000E+6	699.9311250E-3	97.8488283E-6	3.7130573E-3
2.0447500E+6	711.5683227E-3	99.1536376E-6	3.8122110E-3
2.0450000E+6	724.6911399E-3	99.2522829E-6	3.9114633E-3
2.0452500E+6	736.3615547E-3	98.9518629E-6	4.0104151E-3
2.0455000E+6	749.4439550E-3	99.2791862E-6	4.1096943E-3
2.0457500E+6	761.0651185E-3	99.6065095E-6	4.2093008E-3
2.0460010E+6	774.1548954E-3	100.4853501E-6	4.3097862E-3
2.0462500E+6	785.3247589E-3	100.7454152E-6	4.4105316E-3
2.0465000E+6	798.4243419E-3	99.9786716E-6	4.5105103E-3
2.0467500E+6	810.0216970E-3	100.5929632E-6	4.6111032E-3
2.0470010E+6	823.2302511E-3	100.3777370E-6	4.7114810E-3
2.0472500E+6	834.7248191E-3	101.2072549E-6	4.8126882E-3
2.0475000E+6	847.8913661E-3	102.1668053E-6	4.9148550E-3
2.0477500E+6	859.2488259E-3	103.2967432E-6	5.0181518E-3
2.0480000E+6	872.1236644E-3	103.1622268E-6	5.1213140E-3
2.0482500E+6	883.9678939E-3	102.4806769E-6	5.2237947E-3
2.0485000E+6	896.8598709E-3	102.2475151E-6	5.3260422E-3
2.0487500E+6	908.7249494E-3	103.8482605E-6	5.4298904E-3
2.0490000E+6	921.5871107E-3	103.3101948E-6	5.5332006E-3
2.0492500E+6	933.4707853E-3	104.7091656E-6	5.6379098E-3
2.0495000E+6	946.4074197E-3	104.6732945E-6	5.7425831E-3
2.0497500E+6	958.2006753E-3	104.7943593E-6	5.8473775E-3
2.0500000E+6	971.1623108E-3	105.3862315E-6	5.9527637E-3
2.0502500E+6	982.9310954E-3	104.8122948E-6	6.0575760E-3
2.0505000E+6	995.8753273E-3	105.2965539E-6	6.1628725E-3
2.0507500E+6	1.0077388E+0	106.0632975E-6	6.2689358E-3
2.0510000E+6	1.0201763E+0	106.7179440E-6	6.3756538E-3
2.0512500E+6	1.0322291E+0	106.9466219E-6	6.4826004E-3
2.0515000E+6	1.0448145E+0	107.5384942E-6	6.5901389E-3
2.0517500E+6	1.0569720E+0	106.9780091E-6	6.6971169E-3
2.0520000E+6	1.0695784E+0	108.2783345E-6	6.8053952E-3
2.0522510E+6	1.0817422E+0	108.8388195E-6	6.9142341E-3
2.0525000E+6	1.0944019E+0	108.1976246E-6	7.0224317E-3
2.0527500E+6	1.1065576E+0	108.6191094E-6	7.1310508E-3
2.0530000E+6	1.1190541E+0	109.3903368E-6	7.2404411E-3
2.0532500E+6	1.1312770E+0	109.4351756E-6	7.3498763E-3
2.0535000E+6	1.1438641E+0	109.6907568E-6	7.4595671E-3
2.0537500E+6	1.1560159E+0	111.1883729E-6	7.5707554E-3
2.0540000E+6	1.1686117E+0	111.1569858E-6	7.6819124E-3
2.0542510E+6	1.1807914E+0	110.3454034E-6	7.7922578E-3
2.0545000E+6	1.1933788E+0	111.4394702E-6	7.9036973E-3
2.0547500E+6	1.2083312E+0	112.4528272E-6	8.0161501E-3
2.0550000E+6	1.2181639E+0	111.6098577E-6	8.1277600E-3
2.0552500E+6	1.2299559E+0	112.5783759E-6	8.2403384E-3
2.0555000E+6	1.2421056E+0	112.5738920E-6	8.3529123E-3
2.0557500E+6	1.2546843E+0	113.6948621E-6	8.4666071E-3
2.0560000E+6	1.2669400E+0	113.9728627E-6	8.5805800E-3
2.0562500E+6	1.2794683E+0	114.6768320E-6	8.6952568E-3
2.0565000E+6	1.2917668E+0	114.3091538E-6	8.8095660E-3
2.0567500E+6	1.3042114E+0	115.3404463E-6	8.9249064E-3
2.0570000E+6	1.3165665E+0	114.8830905E-6	9.0397895E-3
2.0572500E+6	1.3290084E+0	114.7665096E-6	9.1545560E-3
2.0575000E+6	1.3412659E+0	116.0399317E-6	9.2705959E-3
2.0577500E+6	1.3538063E+0	116.9591272E-6	9.3875551E-3
2.0580010E+6	1.3652450E+0	117.3402570E-6	9.5048953E-3
2.0582500E+6	1.3782375E+0	117.6989675E-6	9.6225943E-3
2.0585000E+6	1.3900914E+0	118.5822919E-6	9.7411766E-3
2.0587500E+6	1.4029361E+0	117.1160630E-6	9.8582926E-3
2.0590000E+6	1.4147770E+0	118.5912597E-6	9.9768839E-3
2.0592510E+6	1.4277999E+0	119.8467462E-6	10.0967307E-3
2.0595000E+6	1.4395874E+0	119.7750041E-6	10.2165057E-3
2.0597500E+6	1.4525487E+0	119.7211976E-6	10.3362269E-3
2.0600000E+6	1.4643679E+0	119.8512301E-6	10.4560781E-3
2.0602500E+6	1.4773319E+0	120.6717803E-6	10.5767499E-3
2.0607500E+6	1.4722708E+0	120.2861665E-6	10.6970360E-3
2.0610000E+6	1.4610210E+0	120.6762641E-6	10.8177123E-3
2.0612500E+6	1.4479594E+0	120.1516501E-6	10.9378639E-3
2.0615000E+6	1.4363594E+0	119.2190030E-6	11.0570829E-3
2.0617500E+6	1.4231918E+0	118.4343239E-6	11.1755173E-3
2.0620000E+6	1.4115722E+0	118.2908397E-6	11.2938081E-3
2.0622500E+6	1.3984434E+0	118.4746788E-6	11.4122828E-3
2.0625000E+6	1.3867757E+0	117.2281600E-6	11.5295110E-3
2.0627500E+6	1.3735809E+0	117.1070952E-6	11.6466180E-3
2.0630000E+6	1.3621640E+0	117.0308693E-6	11.7636489E-3
2.0632510E+6	1.3493122E+0	116.2596418E-6	11.8799086E-3
2.0635000E+6	1.3375617E+0	116.2686096E-6	11.9961772E-3
2.0637510E+6	1.3245233E+0	116.2686096E-6	12.1124458E-3
2.0640000E+6	1.3128231E+0	115.6453502E-6	12.2280911E-3
2.0642500E+6	1.2998096E+0	113.6545072E-6	12.3417456E-3
2.0645000E+6	1.2880421E+0	113.2733774E-6	12.4550190E-3
2.0647500E+6	1.2749788E+0	114.0446048E-6	12.5690636E-3
2.0650010E+6	1.2632705E+0	113.9728627E-6	12.6830365E-3
2.0652500E+6	1.2502646E+0	113.2688935E-6	12.7963054E-3
2.0655000E+6	1.2384949E+0	112.5828598E-6	12.9088882E-3
2.0657500E+6	1.2254868E+0	112.1299878E-6	13.0210182E-3
2.0660000E+6	1.2137652E+0	111.8833744E-6	13.1329016E-3
2.0662500E+6	1.2006987E+0	112.5335371E-6	13.2454351E-3
2.0665000E+6	1.1890097E+0	111.4753413E-6	13.3569105E-3
2.0667500E+6	1.1760002E+0	111.2915022E-6	13.4682020E-3
2.0670000E+6	1.1643129E+0	111.1435341E-6	13.5793455E-3
2.0672500E+6	1.1512513E+0	109.9418541E-6	13.6892874E-3
2.0675010E+6	1.1395395E+0	109.8790798E-6	13.7991664E-3
2.0677500E+6	1.1270330E+0	109.8342410E-6	13.9090007E-3
2.0680000E+6	1.1147555E+0	109.9463380E-6	14.0189470E-3
2.0682500E+6	1.1022850E+0	108.2514312E-6	14.1271985E-3
2.0685000E+6	1.0902013E+0	108.1841730E-6	14.2353826E-3
2.0687500E+6	1.0775847E+0	108.3724959E-6	14.3437551E-3
2.0690000E+6	1.0654876E+0	108.1079470E-6	14.4518631E-3
2.0692500E+6	1.0527606E+0	107.3770745E-6	14.5592401E-3
2.0695000E+6	1.0407579E+0	106.7986539E-6	14.6660388E-3
2.0697500E+6	1.0279903E+0	107.8389142E-6	14.7738777E-3
2.0700000E+6	1.0159350E+0	106.2292011E-6	14.8801069E-3
2.0702500E+6	1.0032485E+0	105.1396181E-6	14.9852465E-3
2.0705000E+6	990.3945740E-3	105.6283611E-6	15.0908749E-3
2.0707500E+6	978.4705266E-3	105.3100055E-6	15.1961849E-3
2.0710000E+6	966.4317659E-3	105.2158441E-6	15.3014007E-3
2.0712500E+6	953.7193901E-3	104.6553590E-6	15.4060561E-3
2.0715000E+6	941.6763890E-3	104.2338742E-6	15.5102900E-3
2.0717500E+6	928.9763812E-3	103.1891300E-6	15.6134791E-3
2.0720000E+6	916.9095274E-3	104.1038417E-6	15.7175829E-3
2.0722500E+6	904.9237283E-3	104.4042617E-6	15.8219872E-3
2.0725000E+6	892.3852556E-3	102.4089348E-6	15.9243961E-3
2.0727500E+6	880.0401215E-3	103.2070656E-6	16.0276032E-3
2.0730000E+6	867.7055886E-3	102.7855808E-6	16.1303888E-3
2.0732500E+6	855.3052401E-3	102.1533536E-6	16.2325421E-3
2.0735000E+6	842.9590017E-3	101.4538683E-6	16.3339960E-3
2.0737500E+6	830.5016279E-3	100.2746077E-6	16.4342706E-3
2.0740000E+6	818.2447484E-3	100.2880593E-6	16.5345587E-3
2.0742500E+6	805.8884831E-3	100.8126734E-6	16.6353714E-3
2.0745000E+6	793.4937886E-3	100.9651253E-6	16.7363365E-3
2.0747500E+6	781.0975481E-3	100.5257050E-6	16.8368622E-3
2.0750000E+6	768.7219357E-3	99.5213158E-6	16.9363835E-3
2.0752500E+6	757.1669410E-3	99.3778316E-6	17.0357613E-3
2.0755000E+6	744.3534567E-3	99.4495737E-6	17.1352109E-3
2.0757500E+6	732.4869206E-3	99.1760570E-6	17.2343870E-3
2.0760010E+6	719.6702559E-3	98.6066041E-6	17.3329936E-3
2.0762500E+6	707.6474853E-3	97.7636346E-6	17.4307572E-3
2.0765000E+6	694.9198703E-3	98.0819901E-6	17.5288392E-3
2.0767500E+6	682.9279314E-3	97.3286982E-6	17.6261679E-3
2.0770000E+6	670.1347660E-3	97.9340221E-6	17.7241019E-3
2.0772500E+6	658.1159708E-3	96.8578907E-6	17.8209598E-3
2.0775000E+6	645.4043017E-3	97.0731170E-6	17.9180329E-3
2.0777500E+6	633.4522938E-3	96.5619546E-6	18.0145949E-3
2.0780010E+6	620.5399537E-3	96.1718570E-6	18.1107667E-3
2.0782500E+6	608.7163965E-3	95.6293075E-6	18.2063960E-3
2.0785000E+6	595.9123648E-3	95.6024042E-6	18.3019984E-3
2.0787500E+6	583.8977218E-3	95.3826940E-6	18.3973811E-3
2.0790000E+6	571.2197555E-3	94.8535961E-6	18.4922347E-3
2.0792500E+6	559.1827175E-3	94.4634985E-6	18.5866982E-3
2.0795000E+6	546.4290856E-3	94.2975949E-6	18.6809958E-3
2.0797500E+6	535.0193268E-3	94.6024988E-6	18.7755983E-3
2.0800000E+6	521.6772423E-3	94.0240782E-6	18.8696224E-3
2.0802500E+6	510.4493817E-3	93.1586893E-6	18.9627811E-3
2.0805000E+6	497.3342503E-3	93.3380445E-6	19.0561191E-3
2.0807500E+6	485.6915311E-3	92.9075920E-6	19.1490267E-3
2.0810000E+6	472.6259601E-3	92.4905911E-6	19.2415173E-3
2.0812500E+6	461.3799892E-3	92.2753648E-6	19.3337927E-3
2.0815000E+6	448.3603124E-3	92.0735902E-6	19.4258663E-3
2.0817500E+6	436.6989970E-3	91.5713956E-6	19.5174377E-3
2.0820000E+6	423.6200421E-3	91.7193636E-6	19.6091570E-3
2.0822500E+6	411.9547954E-3	90.2621025E-6	19.6994191E-3
2.0825000E+6	398.8396199E-3	90.3069413E-6	19.7897261E-3
2.0827500E+6	387.1900541E-3	91.1185236E-6	19.8808446E-3
2.0830000E+6	374.0971851E-3	90.7149744E-6	19.9715596E-3
2.0832500E+6	362.5132140E-3	90.3921350E-6	20.0619517E-3
2.0835010E+6	349.3759969E-3	89.5446816E-6	20.1514964E-3
2.0837500E+6	337.7671130E-3	90.3607478E-6	20.2418571E-3
2.0840000E+6	324.6512749E-3	89.1007774E-6	20.3309579E-3
2.0842500E+6	313.0438929E-3	89.6298753E-6	20.4205878E-3
2.0845000E+6	299.8745631E-3	89.2577132E-6	20.5098455E-3
2.0847500E+6	288.2614830E-3	89.0380031E-6	20.5988835E-3
2.0850000E+6	275.0954219E-3	89.3204876E-6	20.6882040E-3
2.0852500E+6	263.5232004E-3	87.9484201E-6	20.7761524E-3
2.0855000E+6	250.3876176E-3	88.3071306E-6	20.8644595E-3
2.0857500E+6	238.8148661E-3	87.3879350E-6	20.9518475E-3
2.0860000E+6	225.6416492E-3	88.2578079E-6	21.0401053E-3
2.0862500E+6	214.0370941E-3	87.1458055E-6	21.1272511E-3
2.0865000E+6	200.8700613E-3	89.0604225E-6	21.2163115E-3
2.0867500E+6	189.3584872E-3	87.5179676E-6	21.3038295E-3
2.0870000E+6	176.1686177E-3	87.2623864E-6	21.3910919E-3
2.0872500E+6	164.7322235E-3	86.2983521E-6	21.4773902E-3
2.0875000E+6	151.5029530E-3	87.3117091E-6	21.5647019E-3
2.0877500E+6	140.0488460E-3	86.3700942E-6	21.6510720E-3
2.0880000E+6	127.2133201E-3	87.4103544E-6	21.7384824E-3
2.0882500E+6	115.3087082E-3	86.2041906E-6	21.8246866E-3
2.0885000E+6	102.4898791E-3	86.2804166E-6	21.9109670E-3
2.0887500E+6	89.6014481E-3	86.6480948E-6	21.9976151E-3
2.0890000E+6	77.6941543E-3	85.1190915E-6	22.0827342E-3
2.0892500E+6	65.8284960E-3	86.8364177E-6	22.1695706E-3
2.0895000E+6	52.9919841E-3	85.1998013E-6	22.2547704E-3
2.0897500E+6	41.1268353E-3	85.6302539E-6	22.3404006E-3
2.0900000E+6	28.2563445E-3	85.6975121E-6	22.4260982E-3
2.0902500E+6	16.3932384E-3	84.8545425E-6	22.5109527E-3
2.0905000E+6	4.1672970E-3	85.8589318E-6	22.5968116E-3
