Acquisition Time (ms)	Shunt Voltage (V)	Sample Voltage (V)	Integrated Sample Voltage (V)		
milliseconds	Volts	Volts	Volts		
4.4752500E+6	5.2638173E-3	674.1693809E-9	674.1693809E-9
4.4755000E+6	17.5863050E-3	629.3305756E-9	1.3035000E-6
4.4757510E+6	29.7205274E-3	566.5562481E-9	1.8700562E-6
4.4760000E+6	42.2405820E-3	1.0104604E-6	2.8805166E-6
4.4762500E+6	54.3534570E-3	606.9111729E-9	3.4874278E-6
4.4765000E+6	66.8743563E-3	1.5664616E-6	5.0538894E-6
4.4767500E+6	78.3013725E-3	1.8848171E-6	6.9387065E-6
4.4770000E+6	91.2496099E-3	920.7828103E-9	7.8594893E-6
4.4772500E+6	102.7661371E-3	2.1090112E-6	9.9685005E-6
4.4775000E+6	115.8234138E-3	2.2435276E-6	12.2120281E-6
4.4777500E+6	130.6903225E-3	4.0819186E-6	16.2939466E-6
4.4780000E+6	140.1753532E-3	4.3016287E-6	20.5955754E-6
4.4782500E+6	151.3567896E-3	6.2969556E-6	26.8925310E-6
4.4785000E+6	163.6823115E-3	6.1041487E-6	32.9966797E-6
4.4787500E+6	175.7497837E-3	7.7407651E-6	40.7374448E-6
4.4790000E+6	188.2812331E-3	9.1621552E-6	49.8996000E-6
4.4792500E+6	200.3901823E-3	10.2293188E-6	60.1289188E-6
4.4795000E+6	212.8963656E-3	47.1854622E-6	107.3143810E-6
4.4797500E+6	225.0095994E-3	76.4113955E-6	183.7257765E-6
4.4800000E+6	237.6221919E-3	80.7517919E-6	264.4775683E-6
4.4802500E+6	249.7052566E-3	82.9040545E-6	347.3816228E-6
4.4805000E+6	262.2569807E-3	83.6618303E-6	431.0434531E-6
4.4807500E+6	274.3539152E-3	83.4152169E-6	514.4586700E-6
4.4810000E+6	286.8911069E-3	83.4824751E-6	597.9411451E-6
4.4812500E+6	299.0288559E-3	84.9935428E-6	682.9346880E-6
4.4815000E+6	311.6579243E-3	83.9936375E-6	766.9283255E-6
4.4817500E+6	323.6541037E-3	84.7334778E-6	851.6618032E-6
4.4820000E+6	336.2918297E-3	85.5854151E-6	937.2472183E-6
4.4822500E+6	348.3536038E-3	85.8454801E-6	1.0230927E-3
4.4825000E+6	360.9206112E-3	85.2267046E-6	1.1083194E-3
4.4827500E+6	373.0248782E-3	85.5316085E-6	1.1938510E-3
4.4830000E+6	385.5639251E-3	86.6167076E-6	1.2804677E-3
4.4832500E+6	397.3671193E-3	86.3162876E-6	1.3667840E-3
4.4835000E+6	409.5787672E-3	86.4104491E-6	1.4531945E-3
4.4837500E+6	422.0258491E-3	86.5090945E-6	1.5397036E-3
4.4840000E+6	434.2492908E-3	87.0202568E-6	1.6267238E-3
4.4842500E+6	446.6827678E-3	87.6569679E-6	1.7143808E-3
4.4845000E+6	458.8916771E-3	88.0560332E-6	1.8024368E-3
4.4847500E+6	471.3577527E-3	88.2936789E-6	1.8907305E-3
4.4850000E+6	483.5841097E-3	88.4820019E-6	1.9792125E-3
4.4852510E+6	496.0470491E-3	87.8363231E-6	2.0670488E-3
4.4855000E+6	508.2008766E-3	89.5940043E-6	2.1566428E-3
4.4857500E+6	520.6490186E-3	88.7824219E-6	2.2454252E-3
4.4860000E+6	532.8872577E-3	90.1455216E-6	2.3355708E-3
4.4862500E+6	545.0530114E-3	89.8585532E-6	2.4254293E-3
4.4865000E+6	556.6917551E-3	90.0334246E-6	2.5154627E-3
4.4867500E+6	569.6241491E-3	90.3697156E-6	2.6058325E-3
4.4870000E+6	581.4187299E-3	90.8046520E-6	2.6966371E-3
4.4872500E+6	594.2902997E-3	91.1992335E-6	2.7878363E-3
4.4875000E+6	606.1443352E-3	91.0198783E-6	2.8788562E-3
4.4877500E+6	618.9686858E-3	91.7059120E-6	2.9705621E-3
4.4880000E+6	630.7635757E-3	92.9658824E-6	3.0635280E-3
4.4882500E+6	643.6712336E-3	92.9927857E-6	3.1565208E-3
4.4885000E+6	655.3942124E-3	92.0735902E-6	3.2485944E-3
4.4887500E+6	668.3301401E-3	92.7013335E-6	3.3412957E-3
4.4890000E+6	680.1267527E-3	93.6833033E-6	3.4349790E-3
4.4892500E+6	692.9756184E-3	93.5443030E-6	3.5285233E-3
4.4895000E+6	704.7834948E-3	94.8132412E-6	3.6233366E-3
4.4897500E+6	717.6581124E-3	93.9209490E-6	3.7172575E-3
4.4900000E+6	729.4571103E-3	94.5531761E-6	3.8118107E-3
4.4902500E+6	742.2950215E-3	94.3783048E-6	3.9061890E-3
4.4905000E+6	754.0875703E-3	94.5666278E-6	4.0007556E-3
4.4907510E+6	766.6267939E-3	95.5844687E-6	4.0963401E-3
4.4910000E+6	778.1051952E-3	96.3287928E-6	4.1926689E-3
4.4912500E+6	791.1826925E-3	96.8713424E-6	4.2895402E-3
4.4915000E+6	802.6903353E-3	96.8309875E-6	4.3863712E-3
4.4917500E+6	815.8226052E-3	96.3915672E-6	4.4827628E-3
4.4920000E+6	827.3229597E-3	97.4363113E-6	4.5801991E-3
4.4922500E+6	840.4343807E-3	97.1493430E-6	4.6773484E-3
4.4925000E+6	851.9593387E-3	98.2972164E-6	4.7756457E-3
4.4927500E+6	864.7411079E-3	98.1178612E-6	4.8737635E-3
4.4930000E+6	876.3799400E-3	97.4901179E-6	4.9712536E-3
4.4932500E+6	889.2785870E-3	99.0594761E-6	5.0703131E-3
4.4935000E+6	900.9831904E-3	98.6379913E-6	5.1689511E-3
4.4937500E+6	914.0128941E-3	99.4899286E-6	5.2684410E-3
4.4940000E+6	925.6752255E-3	100.5167373E-6	5.3689578E-3
4.4942500E+6	938.8426117E-3	100.7723184E-6	5.4697301E-3
4.4945000E+6	950.3948235E-3	100.5929632E-6	5.5703230E-3
4.4947500E+6	963.3561940E-3	100.3059949E-6	5.6706290E-3
4.4950000E+6	975.0739605E-3	101.8932886E-6	5.7725223E-3
4.4952500E+6	988.0162931E-3	102.1847408E-6	5.8747071E-3
4.4955000E+6	999.7275222E-3	101.7587722E-6	5.9764658E-3
4.4957510E+6	1.0127391E+0	102.8483551E-6	6.0793142E-3
4.4960000E+6	1.0244156E+0	102.5210318E-6	6.1818352E-3
4.4962500E+6	1.0373807E+0	102.7586775E-6	6.2845939E-3
4.4965000E+6	1.0490577E+0	103.2115495E-6	6.3878055E-3
4.4967500E+6	1.0617172E+0	103.3460659E-6	6.4911515E-3
4.4970000E+6	1.0735355E+0	104.5567136E-6	6.5957082E-3
4.4972500E+6	1.0862082E+0	104.1980032E-6	6.6999062E-3
4.4975000E+6	1.0981983E+0	104.3594229E-6	6.8042657E-3
4.4977500E+6	1.1109243E+0	104.6060363E-6	6.9088717E-3
4.4980000E+6	1.1228998E+0	105.7270064E-6	7.0145987E-3
4.4982500E+6	1.1356287E+0	105.5476512E-6	7.1201464E-3
4.4985000E+6	1.1475272E+0	105.5700706E-6	7.2257164E-3
4.4987500E+6	1.1602255E+0	106.5027178E-6	7.3322191E-3
4.4990000E+6	1.1722055E+0	107.3591389E-6	7.4395783E-3
4.4992500E+6	1.1849519E+0	106.9286864E-6	7.5465070E-3
4.4995000E+6	1.1969210E+0	106.5385888E-6	7.6530456E-3
4.4997510E+6	1.2115222E+0	107.4488166E-6	7.7604944E-3
4.5000000E+6	1.2212752E+0	108.8433034E-6	7.8693377E-3
4.5002500E+6	1.2336236E+0	108.6504965E-6	7.9779882E-3
4.5005000E+6	1.2459724E+0	109.1661428E-6	8.0871543E-3
4.5007500E+6	1.2582784E+0	109.8163055E-6	8.1969706E-3
4.5010000E+6	1.2705979E+0	109.9418541E-6	8.3069125E-3
4.5012500E+6	1.2829832E+0	110.6144362E-6	8.4175269E-3
4.5015000E+6	1.2953187E+0	110.4305971E-6	8.5279575E-3
4.5017500E+6	1.3077031E+0	110.6727267E-6	8.6386302E-3
4.5020000E+6	1.3200622E+0	111.4887929E-6	8.7501190E-3
4.5022500E+6	1.3323794E+0	112.5918275E-6	8.8627109E-3
4.5025010E+6	1.3444275E+0	111.1435341E-6	8.9738544E-3
4.5027500E+6	1.3571011E+0	111.7533419E-6	9.0856077E-3
4.5030000E+6	1.3691051E+0	111.9102777E-6	9.1975180E-3
4.5032500E+6	1.3809991E+0	112.5335371E-6	9.3100516E-3
4.5035000E+6	1.3937827E+0	113.8697335E-6	9.4239213E-3
4.5037500E+6	1.4057613E+0	113.2464741E-6	9.5371678E-3
4.5040000E+6	1.4184572E+0	112.8877636E-6	9.6500555E-3
4.5042500E+6	1.4303837E+0	114.3226054E-6	9.7643781E-3
4.5045000E+6	1.4431771E+0	114.4616057E-6	9.8788397E-3
4.5047500E+6	1.4551196E+0	114.5961221E-6	9.9934359E-3
4.5050000E+6	1.4678297E+0	115.5467048E-6	10.1089826E-3
4.5052500E+6	1.4790052E+0	116.5959328E-6	10.2255785E-3
4.5055000E+6	1.4722886E+0	115.5018660E-6	10.3410804E-3
4.5057500E+6	1.4603697E+0	114.9772520E-6	10.4560576E-3
4.5060000E+6	1.4477451E+0	114.7261547E-6	10.5707838E-3
4.5062500E+6	1.4356988E+0	114.9638003E-6	10.6857476E-3
4.5065000E+6	1.4230599E+0	114.0356371E-6	10.7997832E-3
4.5067500E+6	1.4110809E+0	114.3315732E-6	10.9141148E-3
4.5070000E+6	1.3983066E+0	113.4482487E-6	11.0275630E-3
4.5072500E+6	1.3863369E+0	113.1209254E-6	11.1406840E-3
4.5075000E+6	1.3739644E+0	112.5738920E-6	11.2532578E-3
4.5077500E+6	1.3617742E+0	112.2106977E-6	11.3654685E-3
4.5080000E+6	1.3493537E+0	112.4214401E-6	11.4778900E-3
4.5082500E+6	1.3371234E+0	111.1614696E-6	11.5890515E-3
4.5085000E+6	1.3246547E+0	111.3766959E-6	11.7004281E-3
4.5087500E+6	1.3130017E+0	109.9642735E-6	11.8103924E-3
4.5090000E+6	1.2999709E+0	110.9507273E-6	11.9213431E-3
4.5092500E+6	1.2883909E+0	110.4171455E-6	12.0317603E-3
4.5095000E+6	1.2752959E+0	109.7759506E-6	12.1415362E-3
4.5097500E+6	1.2636479E+0	109.2872076E-6	12.2508235E-3
4.5100000E+6	1.2506219E+0	109.2647882E-6	12.3600882E-3
4.5102500E+6	1.2387863E+0	108.5563350E-6	12.4686446E-3
4.5105000E+6	1.2259180E+0	107.7851076E-6	12.5764297E-3
4.5107500E+6	1.2142962E+0	107.1932354E-6	12.6836229E-3
4.5110000E+6	1.2012244E+0	108.0451727E-6	12.7916681E-3
4.5112510E+6	1.1900525E+0	107.4757198E-6	12.8991438E-3
4.5115010E+6	1.1769669E+0	106.9600736E-6	13.0061039E-3
4.5117500E+6	1.1654591E+0	105.8929100E-6	13.1119968E-3
4.5120000E+6	1.1523276E+0	107.0452673E-6	13.2190421E-3
4.5122500E+6	1.1407334E+0	106.4892661E-6	13.3255313E-3
4.5125000E+6	1.1276282E+0	106.2605882E-6	13.4317919E-3
4.5127500E+6	1.1160714E+0	105.6956193E-6	13.5374875E-3
4.5130000E+6	1.1030219E+0	104.6643267E-6	13.6421519E-3
4.5132500E+6	1.0914001E+0	103.7406474E-6	13.7458925E-3
4.5135000E+6	1.0782681E+0	104.9781984E-6	13.8508707E-3
4.5137510E+6	1.0667082E+0	103.9334542E-6	13.9548042E-3
4.5140000E+6	1.0535406E+0	103.4491951E-6	14.0582534E-3
4.5142500E+6	1.0420164E+0	103.2339689E-6	14.1614873E-3
4.5145000E+6	1.0289450E+0	102.4044510E-6	14.2638918E-3
4.5147510E+6	1.0173178E+0	102.8483551E-6	14.3667401E-3
4.5150000E+6	1.0042794E+0	102.2833862E-6	14.4690235E-3
4.5152500E+6	991.8523654E-3	101.8170626E-6	14.5708406E-3
4.5155000E+6	979.5605905E-3	102.5075802E-6	14.6733482E-3
4.5157500E+6	968.2569757E-3	101.0099641E-6	14.7743581E-3
4.5160000E+6	955.3790894E-3	100.3777370E-6	14.8747359E-3
4.5162500E+6	943.5346832E-3	101.2924486E-6	14.9760283E-3
4.5165000E+6	930.6287921E-3	99.4226704E-6	15.0754510E-3
4.5167500E+6	918.8429573E-3	100.1490590E-6	15.1756000E-3
4.5170000E+6	905.9963002E-3	98.8307982E-6	15.2744308E-3
4.5172500E+6	894.2061366E-3	98.1940871E-6	15.3726249E-3
4.5175000E+6	881.3697273E-3	98.7142173E-6	15.4713391E-3
4.5177500E+6	869.5061065E-3	98.3913779E-6	15.5697305E-3
4.5180000E+6	856.6041909E-3	98.5707331E-6	15.6683013E-3
4.5182500E+6	844.8687116E-3	97.2524722E-6	15.7655537E-3
4.5185000E+6	831.9677677E-3	98.4720877E-6	15.8640258E-3
4.5187500E+6	820.2021635E-3	97.9205704E-6	15.9619464E-3
4.5190000E+6	807.7994298E-3	96.7099227E-6	16.0586563E-3
4.5192510E+6	795.5352620E-3	96.6650839E-6	16.1553214E-3
4.5195000E+6	783.3525464E-3	96.1718570E-6	16.2514932E-3
4.5197500E+6	771.1386016E-3	97.0058588E-6	16.3484991E-3
4.5200010E+6	758.6259693E-3	95.2033388E-6	16.4437024E-3
4.5202500E+6	746.5065073E-3	95.5979203E-6	16.5393004E-3
4.5205000E+6	733.8743469E-3	95.0329514E-6	16.6343333E-3
4.5207500E+6	721.8419910E-3	94.4141758E-6	16.7287475E-3
4.5210000E+6	709.3009122E-3	94.6069827E-6	16.8233545E-3
4.5212500E+6	697.1637375E-3	95.3019842E-6	16.9186565E-3
4.5215000E+6	684.6372794E-3	93.2124959E-6	17.0118690E-3
4.5217500E+6	672.4877366E-3	93.1273021E-6	17.1049963E-3
4.5220000E+6	660.0205126E-3	92.5713009E-6	17.1975676E-3
4.5222500E+6	647.8647858E-3	93.3604639E-6	17.2909280E-3
4.5225010E+6	635.2413272E-3	91.9570093E-6	17.3828850E-3
4.5227500E+6	623.1679802E-3	92.3740102E-6	17.4752590E-3
4.5230000E+6	610.6116622E-3	92.3650424E-6	17.5676241E-3
4.5232500E+6	598.4681268E-3	90.2845219E-6	17.6579086E-3
4.5235000E+6	586.1216675E-3	91.0557493E-6	17.7489644E-3
4.5237500E+6	574.0919620E-3	91.1992335E-6	17.8401636E-3
4.5240010E+6	561.9647258E-3	91.0243622E-6	17.9311880E-3
4.5242500E+6	549.4801423E-3	90.5849419E-6	18.0217729E-3
4.5245000E+6	537.3291419E-3	89.9168437E-6	18.1116897E-3
4.5247500E+6	524.7928778E-3	89.5446816E-6	18.2012344E-3
4.5250000E+6	512.6052150E-3	88.9841965E-6	18.2902186E-3
4.5252500E+6	500.1189530E-3	89.3025520E-6	18.3795212E-3
4.5255000E+6	488.0087670E-3	88.7734541E-6	18.4682946E-3
4.5257510E+6	475.4841642E-3	87.6704195E-6	18.5559650E-3
4.5260000E+6	463.4135559E-3	87.5045159E-6	18.6434696E-3
4.5262500E+6	450.8221657E-3	87.9663556E-6	18.7314359E-3
4.5265000E+6	439.3387731E-3	87.8004521E-6	18.8192364E-3
4.5267500E+6	426.2069449E-3	86.9305792E-6	18.9061669E-3
4.5270000E+6	414.7595078E-3	86.9216115E-6	18.9930886E-3
4.5272510E+6	401.8766301E-3	86.4418363E-6	19.0795304E-3
4.5275000E+6	390.2524187E-3	86.1638357E-6	19.1656942E-3
4.5277500E+6	377.2486437E-3	86.5180622E-6	19.2522123E-3
4.5280000E+6	365.4857780E-3	86.1279646E-6	19.3383403E-3
4.5282500E+6	352.5321376E-3	85.5495440E-6	19.4238898E-3
4.5285000E+6	340.9150820E-3	84.9621557E-6	19.5088520E-3
4.5287510E+6	327.8485393E-3	84.2223154E-6	19.5930743E-3
4.5290000E+6	316.2379769E-3	84.5272193E-6	19.6776015E-3
4.5292500E+6	303.2432570E-3	84.5272193E-6	19.7621287E-3
4.5295000E+6	291.5533627E-3	83.7425402E-6	19.8458712E-3
4.5297500E+6	278.5868242E-3	83.4376363E-6	19.9293089E-3
4.5300000E+6	266.8271831E-3	82.9757966E-6	20.0122847E-3
4.5302500E+6	253.8966443E-3	82.5453441E-6	20.0948300E-3
4.5305000E+6	242.2218566E-3	82.3570211E-6	20.1771870E-3
4.5307500E+6	229.2296103E-3	80.0836937E-6	20.2572707E-3
4.5310000E+6	218.0605861E-3	69.2820254E-6	20.3265528E-3
4.5312500E+6	205.0284529E-3	13.2021316E-6	20.3397549E-3
4.5315000E+6	193.4673626E-3	8.4312827E-6	20.3481862E-3
4.5317500E+6	180.3550141E-3	7.8035394E-6	20.3559897E-3
4.5320000E+6	169.0870899E-3	6.0772454E-6	20.3620670E-3
4.5322500E+6	156.0972288E-3	6.0951809E-6	20.3681621E-3
4.5325000E+6	144.4416557E-3	4.2343705E-6	20.3723965E-3
4.5327500E+6	131.5247660E-3	3.3331105E-6	20.3757296E-3
4.5330000E+6	119.8310729E-3	2.6605285E-6	20.3783902E-3
4.5332500E+6	106.8772116E-3	2.2973341E-6	20.3806875E-3
4.5335010E+6	93.9228835E-3	1.4767840E-6	20.3821643E-3
4.5337500E+6	82.2477344E-3	1.5530100E-6	20.3837173E-3
4.5340000E+6	70.4948476E-3	1.7637524E-6	20.3854810E-3
4.5342500E+6	57.5418632E-3	781.7825137E-9	20.3862628E-3
4.5345000E+6	45.8224056E-3	858.0084828E-9	20.3871208E-3
4.5347500E+6	32.8866789E-3	1.1673962E-6	20.3882882E-3
4.5350000E+6	21.2305574E-3	772.8147527E-9	20.3890610E-3
4.5352500E+6	8.2263589E-3	1.5395583E-6	20.3906006E-3
